##TITLE=No Description
##DATA TYPE=INFRARED SPECTRUM
##XUNITS=1/CM
##YUNITS=%T
400.000886  	77.643459 
400.715173  	77.581581 
401.429460  	77.422242 
402.143748  	77.317628 
402.858035  	77.382399 
403.572322  	77.526446 
404.286609  	77.604158 
405.000897  	77.568243 
405.715184  	77.520713 
406.429471  	77.482286 
407.143759  	77.375568 
407.858046  	77.178808 
408.572333  	77.065011 
409.286621  	77.045147 
410.000908  	76.932637 
410.715195  	76.838586 
411.429482  	76.975107 
412.143770  	77.245720 
412.858057  	77.314175 
413.572344  	77.206349 
414.286632  	77.034982 
415.000919  	76.869797 
415.715206  	76.768167 
416.429494  	76.730478 
417.143781  	76.614587 
417.858068  	76.425384 
418.572355  	76.324123 
419.286643  	76.213817 
420.000930  	76.015267 
420.715217  	75.883565 
421.429505  	75.813167 
422.143792  	75.723333 
422.858079  	75.698884 
423.572366  	75.834861 
424.286654  	76.147925 
425.000941  	76.435816 
425.715228  	76.412132 
426.429516  	76.340025 
427.143803  	76.342857 
427.858090  	76.309682 
428.572378  	76.345712 
429.286665  	76.578021 
430.000952  	76.817174 
430.715239  	76.905481 
431.429527  	76.896731 
432.143814  	76.844039 
432.858101  	76.744585 
433.572389  	76.565550 
434.286676  	76.375818 
435.000963  	76.280587 
435.715251  	76.203697 
436.429538  	76.104928 
437.143825  	76.065604 
437.858112  	76.019615 
438.572400  	75.922037 
439.286687  	75.875386 
440.000974  	75.787458 
440.715262  	75.511370 
441.429549  	75.261180 
442.143836  	75.226747 
442.858123  	75.242584 
443.572411  	75.135376 
444.286698  	74.984230 
445.000985  	74.876636 
445.715273  	74.783417 
446.429560  	74.702545 
447.143847  	74.706191 
447.858135  	74.804735 
448.572422  	74.942771 
449.286709  	75.108921 
450.000996  	75.234033 
450.715284  	75.239111 
451.429571  	75.237108 
452.143858  	75.272219 
452.858146  	75.214173 
453.572433  	75.166116 
454.286720  	75.296183 
455.001008  	75.467543 
455.715295  	75.477939 
456.429582  	75.318405 
457.143869  	75.115376 
457.858157  	75.000792 
458.572444  	74.996169 
459.286731  	75.040984 
460.001019  	75.114437 
460.715306  	75.238972 
461.429593  	75.366376 
462.143880  	75.356502 
462.858168  	75.207628 
463.572455  	75.095996 
464.286742  	75.090796 
465.001030  	75.100244 
465.715317  	75.080615 
466.429604  	75.038306 
467.143892  	74.907016 
467.858179  	74.697705 
468.572466  	74.467805 
469.286753  	74.288017 
470.001041  	74.221230 
470.715328  	74.279698 
471.429615  	74.399721 
472.143903  	74.526824 
472.858190  	74.627494 
473.572477  	74.664053 
474.286764  	74.636492 
475.001052  	74.570150 
475.715339  	74.519213 
476.429626  	74.483914 
477.143914  	74.407373 
477.858201  	74.360642 
478.572488  	74.407505 
479.286776  	74.432618 
480.001063  	74.412671 
480.715350  	74.456281 
481.429637  	74.526268 
482.143925  	74.561855 
482.858212  	74.627524 
483.572499  	74.766015 
484.286787  	74.915781 
485.001074  	75.022144 
485.715361  	75.076753 
486.429649  	75.103878 
487.143936  	75.150669 
487.858223  	75.212726 
488.572510  	75.220383 
489.286798  	75.170729 
490.001085  	75.155564 
490.715372  	75.223832 
491.429660  	75.316084 
492.143947  	75.353249 
492.858234  	75.308400 
493.572521  	75.227413 
494.286809  	75.163336 
495.001096  	75.122220 
495.715383  	75.122139 
496.429671  	75.171959 
497.143958  	75.225133 
497.858245  	75.244079 
498.572533  	75.222248 
499.286820  	75.193419 
500.001107  	75.193302 
500.715394  	75.194572 
501.429682  	75.180611 
502.143969  	75.184013 
502.858256  	75.211165 
503.572544  	75.256072 
504.286831  	75.306381 
505.001118  	75.316747 
505.715406  	75.289942 
506.429693  	75.294168 
507.143980  	75.345147 
507.858267  	75.390827 
508.572555  	75.416121 
509.286842  	75.449891 
510.001129  	75.480073 
510.715417  	75.489298 
511.429704  	75.511813 
512.143991  	75.575444 
512.858278  	75.657660 
513.572566  	75.726336 
514.286853  	75.755859 
515.001140  	75.762463 
515.715428  	75.781788 
516.429715  	75.792746 
517.144002  	75.759763 
517.858290  	75.722335 
518.572577  	75.718195 
519.286864  	75.720175 
520.001151  	75.700077 
520.715439  	75.660519 
521.429726  	75.620853 
522.144013  	75.600295 
522.858301  	75.602827 
523.572588  	75.641653 
524.286875  	75.713649 
525.001163  	75.764533 
525.715450  	75.781003 
526.429737  	75.795635 
527.144024  	75.803691 
527.858312  	75.829055 
528.572599  	75.906158 
529.286886  	75.978741 
530.001174  	76.009379 
530.715461  	76.053548 
531.429748  	76.118977 
532.144035  	76.164781 
532.858323  	76.190108 
533.572610  	76.213881 
534.286897  	76.247801 
535.001185  	76.284408 
535.715472  	76.316913 
536.429759  	76.367774 
537.144047  	76.412972 
537.858334  	76.403342 
538.572621  	76.388690 
539.286908  	76.425980 
540.001196  	76.477907 
540.715483  	76.522857 
541.429770  	76.579553 
542.144058  	76.637917 
542.858345  	76.697228 
543.572632  	76.773639 
544.286919  	76.848786 
545.001207  	76.899948 
545.715494  	76.942510 
546.429781  	77.004603 
547.144069  	77.076685 
547.858356  	77.126418 
548.572643  	77.165527 
549.286931  	77.224480 
550.001218  	77.280714 
550.715505  	77.310110 
551.429792  	77.337680 
552.144080  	77.376831 
552.858367  	77.411320 
553.572654  	77.442232 
554.286942  	77.486522 
555.001229  	77.542141 
555.715516  	77.584818 
556.429804  	77.605398 
557.144091  	77.625924 
557.858378  	77.658350 
558.572665  	77.699555 
559.286953  	77.756198 
560.001240  	77.821660 
560.715527  	77.885934 
561.429815  	77.952260 
562.144102  	78.004793 
562.858389  	78.028414 
563.572676  	78.047595 
564.286964  	78.087568 
565.001251  	78.143132 
565.715538  	78.191780 
566.429826  	78.217744 
567.144113  	78.230958 
567.858400  	78.245095 
568.572688  	78.262951 
569.286975  	78.280780 
570.001262  	78.278060 
570.715549  	78.254916 
571.429837  	78.244280 
572.144124  	78.255825 
572.858411  	78.278367 
573.572699  	78.303813 
574.286986  	78.305786 
575.001273  	78.270222 
575.715561  	78.235844 
576.429848  	78.245023 
577.144135  	78.293838 
577.858422  	78.350723 
578.572710  	78.399747 
579.286997  	78.444889 
580.001284  	78.492125 
580.715572  	78.543920 
581.429859  	78.591509 
582.144146  	78.617039 
582.858433  	78.631568 
583.572721  	78.670515 
584.287008  	78.732234 
585.001295  	78.791328 
585.715583  	78.841076 
586.429870  	78.872149 
587.144157  	78.876132 
587.858445  	78.876211 
588.572732  	78.900090 
589.287019  	78.947501 
590.001306  	79.006500 
590.715594  	79.057389 
591.429881  	79.092108 
592.144168  	79.126235 
592.858456  	79.162551 
593.572743  	79.188229 
594.287030  	79.207102 
595.001318  	79.232215 
595.715605  	79.282412 
596.429892  	79.340762 
597.144179  	79.370032 
597.858467  	79.381816 
598.572754  	79.394316 
599.287041  	79.389245 
600.001329  	79.389343 
600.715616  	79.423270 
601.429903  	79.457907 
602.144190  	79.476905 
602.858478  	79.488673 
603.572765  	79.486671 
604.287052  	79.499533 
605.001340  	79.541676 
605.715627  	79.569978 
606.429914  	79.580998 
607.144202  	79.602597 
607.858489  	79.629264 
608.572776  	79.659614 
609.287063  	79.681814 
610.001351  	79.681550 
610.715638  	79.679434 
611.429925  	79.684223 
612.144213  	79.690198 
612.858500  	79.716322 
613.572787  	79.752241 
614.287074  	79.760964 
615.001362  	79.756440 
615.715649  	79.767518 
616.429936  	79.796801 
617.144224  	79.837878 
617.858511  	79.874584 
618.572798  	79.895429 
619.287086  	79.917729 
620.001373  	79.952907 
620.715660  	79.990360 
621.429947  	80.023534 
622.144235  	80.051775 
622.858522  	80.073422 
623.572809  	80.097153 
624.287097  	80.133385 
625.001384  	80.179481 
625.715671  	80.219530 
626.429959  	80.245984 
627.144246  	80.268468 
627.858533  	80.291630 
628.572820  	80.305416 
629.287108  	80.314422 
630.001395  	80.324784 
630.715682  	80.325083 
631.429970  	80.320158 
632.144257  	80.335732 
632.858544  	80.368163 
633.572831  	80.397808 
634.287119  	80.431809 
635.001406  	80.478141 
635.715693  	80.527184 
636.429981  	80.575988 
637.144268  	80.627808 
637.858555  	80.675413 
638.572843  	80.704735 
639.287130  	80.722633 
640.001417  	80.748719 
640.715704  	80.767418 
641.429992  	80.762183 
642.144279  	80.763802 
642.858566  	80.777840 
643.572854  	80.774007 
644.287141  	80.771660 
645.001428  	80.792498 
645.715716  	80.811864 
646.430003  	80.826634 
647.144290  	80.850776 
647.858577  	80.876325 
648.572865  	80.899917 
649.287152  	80.926868 
650.001439  	80.954030 
650.715727  	80.973896 
651.430014  	80.979815 
652.144301  	80.983678 
652.858588  	80.995722 
653.572876  	80.999232 
654.287163  	80.995443 
655.001450  	81.013420 
655.715738  	81.045994 
656.430025  	81.070388 
657.144312  	81.094276 
657.858600  	81.122600 
658.572887  	81.149040 
659.287174  	81.172774 
660.001461  	81.189933 
660.715749  	81.202771 
661.430036  	81.215521 
662.144323  	81.230723 
662.858611  	81.229361 
663.572898  	81.216549 
664.287185  	81.197790 
665.001473  	81.180031 
665.715760  	81.167064 
666.430047  	81.158252 
667.144334  	81.162590 
667.858622  	81.187779 
668.572909  	81.217454 
669.287196  	81.241121 
670.001484  	81.265546 
670.715771  	81.294390 
671.430058  	81.323675 
672.144345  	81.356469 
672.858633  	81.395015 
673.572920  	81.434997 
674.287207  	81.470357 
675.001495  	81.504020 
675.715782  	81.525891 
676.430069  	81.549912 
677.144357  	81.576683 
677.858644  	81.601228 
678.572931  	81.622096 
679.287218  	81.640750 
680.001506  	81.659519 
680.715793  	81.681290 
681.430080  	81.701129 
682.144368  	81.714613 
682.858655  	81.732132 
683.572942  	81.754621 
684.287229  	81.774765 
685.001517  	81.799374 
685.715804  	81.823813 
686.430091  	81.841709 
687.144379  	81.859914 
687.858666  	81.882155 
688.572953  	81.906563 
689.287241  	81.933365 
690.001528  	81.958110 
690.715815  	81.975658 
691.430102  	81.989081 
692.144390  	81.994640 
692.858677  	81.996402 
693.572964  	82.003750 
694.287252  	82.014263 
695.001539  	82.022772 
695.715826  	82.043029 
696.430114  	82.063584 
697.144401  	82.069196 
697.858688  	82.074021 
698.572975  	82.088065 
699.287263  	82.105385 
700.001550  	82.123372 
700.715837  	82.144634 
701.430125  	82.169118 
702.144412  	82.195730 
702.858699  	82.224013 
703.572986  	82.253438 
704.287274  	82.286250 
705.001561  	82.316405 
705.715848  	82.345051 
706.430136  	82.383823 
707.144423  	82.429963 
707.858710  	82.475614 
708.572998  	82.520736 
709.287285  	82.558261 
710.001572  	82.590457 
710.715859  	82.624351 
711.430147  	82.654792 
712.144434  	82.680104 
712.858721  	82.702638 
713.573009  	82.718686 
714.287296  	82.731162 
715.001583  	82.740258 
715.715871  	82.736665 
716.430158  	82.726554 
717.144445  	82.719460 
717.858732  	82.712338 
718.573020  	82.709350 
719.287307  	82.721449 
720.001594  	82.748229 
720.715882  	82.791193 
721.430169  	82.851525 
722.144456  	82.920394 
722.858743  	83.001912 
723.573031  	83.093957 
724.287318  	83.193492 
725.001605  	83.311535 
725.715893  	83.433629 
726.430180  	83.552078 
727.144467  	83.670675 
727.858755  	83.779660 
728.573042  	83.869922 
729.287329  	83.954421 
730.001616  	84.034807 
730.715904  	84.105230 
731.430191  	84.170837 
732.144478  	84.224854 
732.858766  	84.266495 
733.573053  	84.309569 
734.287340  	84.352364 
735.001628  	84.382844 
735.715915  	84.411774 
736.430202  	84.439695 
737.144489  	84.469101 
737.858777  	84.507055 
738.573064  	84.538334 
739.287351  	84.567748 
740.001639  	84.603804 
740.715926  	84.643872 
741.430213  	84.684521 
742.144500  	84.727351 
742.858788  	84.771807 
743.573075  	84.819706 
744.287362  	84.866315 
745.001650  	84.903640 
745.715937  	84.942548 
746.430224  	84.992863 
747.144512  	85.044058 
747.858799  	85.086973 
748.573086  	85.126431 
749.287373  	85.169371 
750.001661  	85.212399 
750.715948  	85.245363 
751.430235  	85.268944 
752.144523  	85.290530 
752.858810  	85.310486 
753.573097  	85.333536 
754.287384  	85.367554 
755.001672  	85.405765 
755.715959  	85.438103 
756.430246  	85.466384 
757.144534  	85.495759 
757.858821  	85.526366 
758.573108  	85.557096 
759.287396  	85.591575 
760.001683  	85.629145 
760.715970  	85.661747 
761.430257  	85.693742 
762.144545  	85.733012 
762.858832  	85.769529 
763.573119  	85.798780 
764.287407  	85.825989 
765.001694  	85.844517 
765.715981  	85.857901 
766.430269  	85.884621 
767.144556  	85.923738 
767.858843  	85.959724 
768.573130  	85.986566 
769.287418  	86.010773 
770.001705  	86.041190 
770.715992  	86.075418 
771.430280  	86.111649 
772.144567  	86.155258 
772.858854  	86.198786 
773.573141  	86.235954 
774.287429  	86.273178 
775.001716  	86.306622 
775.716003  	86.335641 
776.430291  	86.370521 
777.144578  	86.402918 
777.858865  	86.424251 
778.573153  	86.447912 
779.287440  	86.480157 
780.001727  	86.515201 
780.716014  	86.548972 
781.430302  	86.576324 
782.144589  	86.599256 
782.858876  	86.625488 
783.573164  	86.654783 
784.287451  	86.684497 
785.001738  	86.711959 
785.716026  	86.734707 
786.430313  	86.754589 
787.144600  	86.766702 
787.858887  	86.770077 
788.573175  	86.783064 
789.287462  	86.807281 
790.001749  	86.819442 
790.716037  	86.818590 
791.430324  	86.822642 
792.144611  	86.834121 
792.858898  	86.844806 
793.573186  	86.848356 
794.287473  	86.847665 
795.001760  	86.851315 
795.716048  	86.858134 
796.430335  	86.865460 
797.144622  	86.875816 
797.858910  	86.886615 
798.573197  	86.899598 
799.287484  	86.917327 
800.001771  	86.931235 
800.716059  	86.943620 
801.430346  	86.962796 
802.144633  	86.976093 
802.858921  	86.973841 
803.573208  	86.968431 
804.287495  	86.970184 
805.001783  	86.975948 
805.716070  	86.974110 
806.430357  	86.957124 
807.144644  	86.936351 
807.858932  	86.924504 
808.573219  	86.914777 
809.287506  	86.900976 
810.001794  	86.891302 
810.716081  	86.887418 
811.430368  	86.883005 
812.144655  	86.881266 
812.858943  	86.886626 
813.573230  	86.896944 
814.287517  	86.913889 
815.001805  	86.936319 
815.716092  	86.955311 
816.430379  	86.969897 
817.144667  	86.987536 
817.858954  	87.009566 
818.573241  	87.031159 
819.287528  	87.053450 
820.001816  	87.085998 
820.716103  	87.128534 
821.430390  	87.167633 
822.144678  	87.201171 
822.858965  	87.235910 
823.573252  	87.268147 
824.287539  	87.296536 
825.001827  	87.329016 
825.716114  	87.365700 
826.430401  	87.399449 
827.144689  	87.426793 
827.858976  	87.445330 
828.573263  	87.450515 
829.287551  	87.439663 
830.001838  	87.418101 
830.716125  	87.398828 
831.430412  	87.390444 
832.144700  	87.386952 
832.858987  	87.379097 
833.573274  	87.369371 
834.287562  	87.360207 
835.001849  	87.345677 
835.716136  	87.328377 
836.430424  	87.314849 
837.144711  	87.296818 
837.858998  	87.268634 
838.573285  	87.240158 
839.287573  	87.215953 
840.001860  	87.191778 
840.716147  	87.165775 
841.430435  	87.132390 
842.144722  	87.084453 
842.859009  	87.027301 
843.573296  	86.972385 
844.287584  	86.919810 
845.001871  	86.860174 
845.716158  	86.790891 
846.430446  	86.716389 
847.144733  	86.634502 
847.859020  	86.544632 
848.573308  	86.455965 
849.287595  	86.366631 
850.001882  	86.264958 
850.716169  	86.157922 
851.430457  	86.062292 
852.144744  	85.980902 
852.859031  	85.907512 
853.573319  	85.834935 
854.287606  	85.758277 
855.001893  	85.677292 
855.716181  	85.591699 
856.430468  	85.503740 
857.144755  	85.418107 
857.859042  	85.331810 
858.573330  	85.242438 
859.287617  	85.158009 
860.001904  	85.084298 
860.716192  	85.019654 
861.430479  	84.961351 
862.144766  	84.908027 
862.859053  	84.863134 
863.573341  	84.828114 
864.287628  	84.797439 
865.001915  	84.775108 
865.716203  	84.771551 
866.430490  	84.782459 
867.144777  	84.797174 
867.859065  	84.813072 
868.573352  	84.833948 
869.287639  	84.866484 
870.001926  	84.905672 
870.716214  	84.937046 
871.430501  	84.964833 
872.144788  	85.003275 
872.859076  	85.050593 
873.573363  	85.100045 
874.287650  	85.151155 
875.001938  	85.206789 
875.716225  	85.267775 
876.430512  	85.323519 
877.144799  	85.370061 
877.859087  	85.422534 
878.573374  	85.482127 
879.287661  	85.534835 
880.001949  	85.580816 
880.716236  	85.624785 
881.430523  	85.668976 
882.144810  	85.716344 
882.859098  	85.756818 
883.573385  	85.784519 
884.287672  	85.815272 
885.001960  	85.857209 
885.716247  	85.903898 
886.430534  	85.953877 
887.144822  	86.006454 
887.859109  	86.064002 
888.573396  	86.133471 
889.287683  	86.206748 
890.001971  	86.270151 
890.716258  	86.327887 
891.430545  	86.387007 
892.144833  	86.444245 
892.859120  	86.500801 
893.573407  	86.559738 
894.287694  	86.613790 
895.001982  	86.656405 
895.716269  	86.691705 
896.430556  	86.726087 
897.144844  	86.760113 
897.859131  	86.788794 
898.573418  	86.809227 
899.287706  	86.823933 
900.001993  	86.834955 
900.716280  	86.847555 
901.430567  	86.867916 
902.144855  	86.886499 
902.859142  	86.893099 
903.573429  	86.899859 
904.287717  	86.915820 
905.002004  	86.930575 
905.716291  	86.941628 
906.430579  	86.953629 
907.144866  	86.959521 
907.859153  	86.958717 
908.573440  	86.964542 
909.287728  	86.978550 
910.002015  	86.991206 
910.716302  	86.998232 
911.430590  	86.998097 
912.144877  	86.994671 
912.859164  	86.994629 
913.573451  	86.995061 
914.287739  	86.994972 
915.002026  	86.997825 
915.716313  	86.996720 
916.430601  	86.992318 
917.144888  	86.996158 
917.859175  	87.001542 
918.573463  	86.998694 
919.287750  	86.995173 
920.002037  	86.994627 
920.716324  	86.995108 
921.430612  	86.996785 
922.144899  	86.994518 
922.859186  	86.987885 
923.573474  	86.979718 
924.287761  	86.966083 
925.002048  	86.953351 
925.716336  	86.950361 
926.430623  	86.946594 
927.144910  	86.933276 
927.859197  	86.913546 
928.573485  	86.886725 
929.287772  	86.854814 
930.002059  	86.824521 
930.716347  	86.796080 
931.430634  	86.765878 
932.144921  	86.730361 
932.859208  	86.688739 
933.573496  	86.645328 
934.287783  	86.603370 
935.002070  	86.566346 
935.716358  	86.538435 
936.430645  	86.513912 
937.144932  	86.486033 
937.859220  	86.462371 
938.573507  	86.448066 
939.287794  	86.430387 
940.002081  	86.400809 
940.716369  	86.368415 
941.430656  	86.337788 
942.144943  	86.306274 
942.859231  	86.279228 
943.573518  	86.253958 
944.287805  	86.217188 
945.002093  	86.171515 
945.716380  	86.125072 
946.430667  	86.077372 
947.144954  	86.034991 
947.859242  	85.999670 
948.573529  	85.956084 
949.287816  	85.896856 
950.002104  	85.830574 
950.716391  	85.766663 
951.430678  	85.708082 
952.144965  	85.652048 
952.859253  	85.597176 
953.573540  	85.542150 
954.287827  	85.484857 
955.002115  	85.431829 
955.716402  	85.385002 
956.430689  	85.334164 
957.144977  	85.281459 
957.859264  	85.232789 
958.573551  	85.175630 
959.287838  	85.107251 
960.002126  	85.045956 
960.716413  	84.992758 
961.430700  	84.928115 
962.144988  	84.848670 
962.859275  	84.771387 
963.573562  	84.707592 
964.287849  	84.656675 
965.002137  	84.613152 
965.716424  	84.568715 
966.430711  	84.521845 
967.144999  	84.479988 
967.859286  	84.443346 
968.573573  	84.405932 
969.287861  	84.368490 
970.002148  	84.331543 
970.716435  	84.289922 
971.430722  	84.241983 
972.145010  	84.194929 
972.859297  	84.156155 
973.573584  	84.115501 
974.287872  	84.053760 
975.002159  	83.978516 
975.716446  	83.917442 
976.430734  	83.874127 
977.145021  	83.828132 
977.859308  	83.769123 
978.573595  	83.702957 
979.287883  	83.634932 
980.002170  	83.562183 
980.716457  	83.478140 
981.430745  	83.381829 
982.145032  	83.279285 
982.859319  	83.171194 
983.573606  	83.054236 
984.287894  	82.936081 
985.002181  	82.822214 
985.716468  	82.701286 
986.430756  	82.566670 
987.145043  	82.424510 
987.859330  	82.282513 
988.573618  	82.148029 
989.287905  	82.013341 
990.002192  	81.861614 
990.716479  	81.699617 
991.430767  	81.540656 
992.145054  	81.381507 
992.859341  	81.220165 
993.573629  	81.053505 
994.287916  	80.878251 
995.002203  	80.702827 
995.716491  	80.527378 
996.430778  	80.350410 
997.145065  	80.183089 
997.859352  	80.019896 
998.573640  	79.850522 
999.287927  	79.686688 
1000.002214  	79.532060 
1000.716502  	79.377017 
1001.430789  	79.219218 
1002.145076  	79.058057 
1002.859363  	78.898076 
1003.573651  	78.747340 
1004.287938  	78.604599 
1005.002225  	78.466275 
1005.716513  	78.326757 
1006.430800  	78.180492 
1007.145087  	78.033907 
1007.859375  	77.890967 
1008.573662  	77.747303 
1009.287949  	77.607203 
1010.002236  	77.475616 
1010.716524  	77.348725 
1011.430811  	77.227594 
1012.145098  	77.117550 
1012.859386  	77.013964 
1013.573673  	76.908266 
1014.287960  	76.803727 
1015.002248  	76.708236 
1015.716535  	76.622128 
1016.430822  	76.543643 
1017.145109  	76.468184 
1017.859397  	76.388593 
1018.573684  	76.308231 
1019.287971  	76.233206 
1020.002259  	76.159445 
1020.716546  	76.083471 
1021.430833  	76.008848 
1022.145120  	75.942081 
1022.859408  	75.886351 
1023.573695  	75.836384 
1024.287982  	75.789463 
1025.002270  	75.747658 
1025.716557  	75.706198 
1026.430844  	75.664339 
1027.145132  	75.628828 
1027.859419  	75.598629 
1028.573706  	75.572954 
1029.287993  	75.552898 
1030.002281  	75.531550 
1030.716568  	75.511830 
1031.430855  	75.503198 
1032.145143  	75.499040 
1032.859430  	75.497559 
1033.573717  	75.507951 
1034.288004  	75.526327 
1035.002292  	75.551098 
1035.716579  	75.589266 
1036.430866  	75.633110 
1037.145154  	75.674759 
1037.859441  	75.719375 
1038.573728  	75.768333 
1039.288016  	75.819859 
1040.002303  	75.874329 
1040.716590  	75.933641 
1041.430877  	75.998592 
1042.145165  	76.061428 
1042.859452  	76.121453 
1043.573739  	76.187506 
1044.288027  	76.252007 
1045.002314  	76.310602 
1045.716601  	76.376740 
1046.430889  	76.446142 
1047.145176  	76.506452 
1047.859463  	76.562184 
1048.573750  	76.615912 
1049.288038  	76.668244 
1050.002325  	76.721796 
1050.716612  	76.770644 
1051.430900  	76.814482 
1052.145187  	76.858554 
1052.859474  	76.899919 
1053.573761  	76.936274 
1054.288049  	76.963762 
1055.002336  	76.981392 
1055.716623  	77.000716 
1056.430911  	77.020645 
1057.145198  	77.031233 
1057.859485  	77.040341 
1058.573773  	77.051125 
1059.288060  	77.057628 
1060.002347  	77.065534 
1060.716634  	77.073789 
1061.430922  	77.077906 
1062.145209  	77.085788 
1062.859496  	77.095067 
1063.573784  	77.103208 
1064.288071  	77.123031 
1065.002358  	77.152825 
1065.716646  	77.185150 
1066.430933  	77.224403 
1067.145220  	77.264108 
1067.859507  	77.303524 
1068.573795  	77.359059 
1069.288082  	77.428844 
1070.002369  	77.500971 
1070.716657  	77.571766 
1071.430944  	77.636610 
1072.145231  	77.701764 
1072.859518  	77.775360 
1073.573806  	77.846440 
1074.288093  	77.907263 
1075.002380  	77.963212 
1075.716668  	78.024417 
1076.430955  	78.102720 
1077.145242  	78.193026 
1077.859530  	78.281714 
1078.573817  	78.371613 
1079.288104  	78.467903 
1080.002391  	78.572551 
1080.716679  	78.693177 
1081.430966  	78.829590 
1082.145253  	78.973534 
1082.859541  	79.120563 
1083.573828  	79.269853 
1084.288115  	79.427984 
1085.002403  	79.601963 
1085.716690  	79.787263 
1086.430977  	79.975152 
1087.145264  	80.158942 
1087.859552  	80.338958 
1088.573839  	80.526948 
1089.288126  	80.728316 
1090.002414  	80.933251 
1090.716701  	81.132570 
1091.430988  	81.327655 
1092.145275  	81.530490 
1092.859563  	81.745066 
1093.573850  	81.953411 
1094.288137  	82.146867 
1095.002425  	82.337961 
1095.716712  	82.531339 
1096.430999  	82.727226 
1097.145287  	82.925435 
1097.859574  	83.111337 
1098.573861  	83.278076 
1099.288148  	83.431349 
1100.002436  	83.567523 
1100.716723  	83.690493 
1101.431010  	83.813343 
1102.145298  	83.934768 
1102.859585  	84.046774 
1103.573872  	84.141449 
1104.288159  	84.218603 
1105.002447  	84.295923 
1105.716734  	84.379473 
1106.431021  	84.455304 
1107.145309  	84.519097 
1107.859596  	84.576046 
1108.573883  	84.633810 
1109.288171  	84.696090 
1110.002458  	84.749642 
1110.716745  	84.789638 
1111.431032  	84.829853 
1112.145320  	84.869166 
1112.859607  	84.898803 
1113.573894  	84.925797 
1114.288182  	84.956639 
1115.002469  	84.986794 
1115.716756  	85.008926 
1116.431044  	85.019886 
1117.145331  	85.026568 
1117.859618  	85.038974 
1118.573905  	85.054689 
1119.288193  	85.060733 
1120.002480  	85.055409 
1120.716767  	85.052781 
1121.431055  	85.056431 
1122.145342  	85.055480 
1122.859629  	85.049211 
1123.573916  	85.046766 
1124.288204  	85.051095 
1125.002491  	85.058120 
1125.716778  	85.066246 
1126.431066  	85.083729 
1127.145353  	85.113606 
1127.859640  	85.140093 
1128.573928  	85.154203 
1129.288215  	85.166106 
1130.002502  	85.178966 
1130.716789  	85.187438 
1131.431077  	85.193820 
1132.145364  	85.198771 
1132.859651  	85.198456 
1133.573939  	85.193496 
1134.288226  	85.181870 
1135.002513  	85.161929 
1135.716801  	85.143832 
1136.431088  	85.134764 
1137.145375  	85.130413 
1137.859662  	85.127966 
1138.573950  	85.127696 
1139.288237  	85.132020 
1140.002524  	85.141622 
1140.716812  	85.146676 
1141.431099  	85.144600 
1142.145386  	85.146091 
1142.859673  	85.150459 
1143.573961  	85.156489 
1144.288248  	85.175235 
1145.002535  	85.201313 
1145.716823  	85.220316 
1146.431110  	85.239029 
1147.145397  	85.268293 
1147.859685  	85.307935 
1148.573972  	85.358041 
1149.288259  	85.416507 
1150.002546  	85.478997 
1150.716834  	85.549510 
1151.431121  	85.637624 
1152.145408  	85.747838 
1152.859696  	85.870907 
1153.573983  	85.990924 
1154.288270  	86.108921 
1155.002558  	86.237678 
1155.716845  	86.376577 
1156.431132  	86.519681 
1157.145419  	86.664609 
1157.859707  	86.801014 
1158.573994  	86.923922 
1159.288281  	87.044004 
1160.002569  	87.165764 
1160.716856  	87.285950 
1161.431143  	87.406721 
1162.145430  	87.527951 
1162.859718  	87.645770 
1163.574005  	87.761863 
1164.288292  	87.880978 
1165.002580  	88.002564 
1165.716867  	88.119092 
1166.431154  	88.228113 
1167.145442  	88.338055 
1167.859729  	88.452207 
1168.574016  	88.565716 
1169.288303  	88.676513 
1170.002591  	88.781782 
1170.716878  	88.880411 
1171.431165  	88.979061 
1172.145453  	89.080488 
1172.859740  	89.181233 
1173.574027  	89.279762 
1174.288314  	89.373630 
1175.002602  	89.461361 
1175.716889  	89.544581 
1176.431176  	89.623028 
1177.145464  	89.699265 
1177.859751  	89.776217 
1178.574038  	89.846611 
1179.288326  	89.905833 
1180.002613  	89.960631 
1180.716900  	90.010878 
1181.431187  	90.047475 
1182.145475  	90.070661 
1182.859762  	90.091199 
1183.574049  	90.115906 
1184.288337  	90.139362 
1185.002624  	90.152744 
1185.716911  	90.155866 
1186.431199  	90.152557 
1187.145486  	90.146566 
1187.859773  	90.143277 
1188.574060  	90.140425 
1189.288348  	90.130466 
1190.002635  	90.113652 
1190.716922  	90.089927 
1191.431210  	90.056923 
1192.145497  	90.021276 
1192.859784  	89.984568 
1193.574071  	89.934407 
1194.288359  	89.869468 
1195.002646  	89.806956 
1195.716933  	89.756246 
1196.431221  	89.709135 
1197.145508  	89.659844 
1197.859795  	89.613072 
1198.574083  	89.570870 
1199.288370  	89.531162 
1200.002657  	89.492860 
1200.716944  	89.453952 
1201.431232  	89.416812 
1202.145519  	89.384573 
1202.859806  	89.349843 
1203.574094  	89.309315 
1204.288381  	89.272495 
1205.002668  	89.240358 
1205.716956  	89.202138 
1206.431243  	89.155178 
1207.145530  	89.106678 
1207.859817  	89.058959 
1208.574105  	89.006163 
1209.288392  	88.947287 
1210.002679  	88.889606 
1210.716967  	88.834676 
1211.431254  	88.775881 
1212.145541  	88.709344 
1212.859828  	88.636129 
1213.574116  	88.559291 
1214.288403  	88.480802 
1215.002690  	88.396221 
1215.716978  	88.300615 
1216.431265  	88.201617 
1217.145552  	88.110783 
1217.859840  	88.024775 
1218.574127  	87.932604 
1219.288414  	87.831000 
1220.002701  	87.721173 
1220.716989  	87.606039 
1221.431276  	87.493044 
1222.145563  	87.388276 
1222.859851  	87.289645 
1223.574138  	87.188975 
1224.288425  	87.082118 
1225.002713  	86.975121 
1225.717000  	86.874547 
1226.431287  	86.778825 
1227.145574  	86.684708 
1227.859862  	86.593432 
1228.574149  	86.508448 
1229.288436  	86.431797 
1230.002724  	86.361182 
1230.717011  	86.289494 
1231.431298  	86.212044 
1232.145585  	86.132550 
1232.859873  	86.056287 
1233.574160  	85.985768 
1234.288447  	85.924420 
1235.002735  	85.869947 
1235.717022  	85.813045 
1236.431309  	85.752920 
1237.145597  	85.698583 
1237.859884  	85.655682 
1238.574171  	85.623224 
1239.288458  	85.597337 
1240.002746  	85.575530 
1240.717033  	85.558289 
1241.431320  	85.546072 
1242.145608  	85.538331 
1242.859895  	85.534379 
1243.574182  	85.533703 
1244.288469  	85.536687 
1245.002757  	85.543941 
1245.717044  	85.555968 
1246.431331  	85.572650 
1247.145619  	85.591018 
1247.859906  	85.606805 
1248.574193  	85.619613 
1249.288481  	85.633870 
1250.002768  	85.652631 
1250.717055  	85.674334 
1251.431342  	85.697972 
1252.145630  	85.723651 
1252.859917  	85.751074 
1253.574204  	85.783547 
1254.288492  	85.823633 
1255.002779  	85.867893 
1255.717066  	85.913834 
1256.431354  	85.961654 
1257.145641  	86.012803 
1257.859928  	86.071282 
1258.574215  	86.136361 
1259.288503  	86.201437 
1260.002790  	86.264541 
1260.717077  	86.329504 
1261.431365  	86.401005 
1262.145652  	86.480115 
1262.859939  	86.561529 
1263.574226  	86.642778 
1264.288514  	86.729205 
1265.002801  	86.822569 
1265.717088  	86.918817 
1266.431376  	87.016159 
1267.145663  	87.114048 
1267.859950  	87.209888 
1268.574238  	87.301867 
1269.288525  	87.391165 
1270.002812  	87.479424 
1270.717099  	87.565661 
1271.431387  	87.649454 
1272.145674  	87.732243 
1272.859961  	87.812677 
1273.574249  	87.889747 
1274.288536  	87.966177 
1275.002823  	88.041460 
1275.717111  	88.112361 
1276.431398  	88.180210 
1277.145685  	88.247003 
1277.859972  	88.310453 
1278.574260  	88.368212 
1279.288547  	88.420782 
1280.002834  	88.469643 
1280.717122  	88.514364 
1281.431409  	88.553919 
1282.145696  	88.590158 
1282.859983  	88.623904 
1283.574271  	88.654355 
1284.288558  	88.684977 
1285.002845  	88.716198 
1285.717133  	88.742626 
1286.431420  	88.767355 
1287.145707  	88.796225 
1287.859995  	88.823877 
1288.574282  	88.846476 
1289.288569  	88.870221 
1290.002856  	88.899179 
1290.717144  	88.929016 
1291.431431  	88.953873 
1292.145718  	88.975058 
1292.860006  	88.997379 
1293.574293  	89.020990 
1294.288580  	89.045498 
1295.002868  	89.071337 
1295.717155  	89.096366 
1296.431442  	89.119821 
1297.145729  	89.141803 
1297.860017  	89.161488 
1298.574304  	89.179047 
1299.288591  	89.197247 
1300.002879  	89.214096 
1300.717166  	89.227394 
1301.431453  	89.241513 
1302.145740  	89.262041 
1302.860028  	89.285073 
1303.574315  	89.303225 
1304.288602  	89.317283 
1305.002890  	89.334387 
1305.717177  	89.355490 
1306.431464  	89.377973 
1307.145752  	89.403376 
1307.860039  	89.430341 
1308.574326  	89.454357 
1309.288613  	89.473875 
1310.002901  	89.490495 
1310.717188  	89.506025 
1311.431475  	89.519494 
1312.145763  	89.530647 
1312.860050  	89.541052 
1313.574337  	89.552405 
1314.288624  	89.564279 
1315.002912  	89.575039 
1315.717199  	89.584592 
1316.431486  	89.593821 
1317.145774  	89.603515 
1317.860061  	89.614169 
1318.574348  	89.624692 
1319.288636  	89.635697 
1320.002923  	89.647252 
1320.717210  	89.657052 
1321.431497  	89.662758 
1322.145785  	89.667509 
1322.860072  	89.672052 
1323.574359  	89.674584 
1324.288647  	89.674394 
1325.002934  	89.672715 
1325.717221  	89.671573 
1326.431509  	89.668331 
1327.145796  	89.661189 
1327.860083  	89.649337 
1328.574370  	89.634311 
1329.288658  	89.618578 
1330.002945  	89.603536 
1330.717232  	89.586166 
1331.431520  	89.566908 
1332.145807  	89.548565 
1332.860094  	89.530616 
1333.574381  	89.511197 
1334.288669  	89.490406 
1335.002956  	89.467417 
1335.717243  	89.440461 
1336.431531  	89.412141 
1337.145818  	89.383917 
1337.860105  	89.356446 
1338.574393  	89.331172 
1339.288680  	89.304141 
1340.002967  	89.274005 
1340.717254  	89.244676 
1341.431542  	89.213785 
1342.145829  	89.188969 
1342.860116  	89.167223 
1343.574404  	89.146152 
1344.288691  	89.128156 
1345.002978  	89.115612 
1345.717266  	89.104724 
1346.431553  	89.093972 
1347.145840  	89.081383 
1347.860127  	89.064904 
1348.574415  	89.048252 
1349.288702  	89.033898 
1350.002989  	89.019301 
1350.717277  	89.003092 
1351.431564  	88.984762 
1352.145851  	88.963514 
1352.860138  	88.941685 
1353.574426  	88.922618 
1354.288713  	88.905589 
1355.003000  	88.899672 
1355.717288  	88.891785 
1356.431575  	88.885520 
1357.145862  	88.885284 
1357.860150  	88.879051 
1358.574437  	88.862912 
1359.288724  	88.843425 
1360.003011  	88.819144 
1360.717299  	88.789839 
1361.431586  	88.754440 
1362.145873  	88.711909 
1362.860161  	88.664362 
1363.574448  	88.608491 
1364.288735  	88.545429 
1365.003023  	88.483290 
1365.717310  	88.421568 
1366.431597  	88.361579 
1367.145884  	88.311660 
1367.860172  	88.273125 
1368.574459  	88.235880 
1369.288746  	88.199771 
1370.003034  	88.159168 
1370.717321  	88.110961 
1371.431608  	88.068324 
1372.145895  	88.035136 
1372.860183  	88.006983 
1373.574470  	87.981181 
1374.288757  	87.956248 
1375.003045  	87.935900 
1375.717332  	87.921998 
1376.431619  	87.909297 
1377.145907  	87.901873 
1377.860194  	87.903338 
1378.574481  	87.908881 
1379.288768  	87.922884 
1380.003056  	87.948784 
1380.717343  	87.982130 
1381.431630  	88.023238 
1382.145918  	88.059680 
1382.860205  	88.085560 
1383.574492  	88.113990 
1384.288779  	88.147763 
1385.003067  	88.177487 
1385.717354  	88.204117 
1386.431641  	88.225894 
1387.145929  	88.237575 
1387.860216  	88.248678 
1388.574503  	88.271913 
1389.288791  	88.294116 
1390.003078  	88.301996 
1390.717365  	88.297925 
1391.431652  	88.289382 
1392.145940  	88.278131 
1392.860227  	88.267881 
1393.574514  	88.261875 
1394.288802  	88.251136 
1395.003089  	88.223708 
1395.717376  	88.189187 
1396.431664  	88.158046 
1397.145951  	88.126882 
1397.860238  	88.095172 
1398.574525  	88.077133 
1399.288813  	88.069114 
1400.003100  	88.055972 
1400.717387  	88.051882 
1401.431675  	88.066201 
1402.145962  	88.075003 
1402.860249  	88.077659 
1403.574536  	88.088481 
1404.288824  	88.108226 
1405.003111  	88.134629 
1405.717398  	88.166331 
1406.431686  	88.194166 
1407.145973  	88.214032 
1407.860260  	88.232544 
1408.574548  	88.252813 
1409.288835  	88.272387 
1410.003122  	88.290433 
1410.717409  	88.314336 
1411.431697  	88.342007 
1412.145984  	88.352672 
1412.860271  	88.356259 
1413.574559  	88.378711 
1414.288846  	88.399421 
1415.003133  	88.411993 
1415.717421  	88.423605 
1416.431708  	88.433602 
1417.145995  	88.447531 
1417.860282  	88.472261 
1418.574570  	88.495413 
1419.288857  	88.513614 
1420.003144  	88.532020 
1420.717432  	88.549505 
1421.431719  	88.568551 
1422.146006  	88.586354 
1422.860293  	88.598784 
1423.574581  	88.616681 
1424.288868  	88.633999 
1425.003155  	88.641221 
1425.717443  	88.654002 
1426.431730  	88.667746 
1427.146017  	88.660626 
1427.860305  	88.650486 
1428.574592  	88.638750 
1429.288879  	88.618739 
1430.003166  	88.606344 
1430.717454  	88.623691 
1431.431741  	88.632786 
1432.146028  	88.628793 
1432.860316  	88.621607 
1433.574603  	88.617801 
1434.288890  	88.616840 
1435.003178  	88.615518 
1435.717465  	88.616435 
1436.431752  	88.624316 
1437.146039  	88.628136 
1437.860327  	88.621144 
1438.574614  	88.611129 
1439.288901  	88.607617 
1440.003189  	88.602452 
1440.717476  	88.589679 
1441.431763  	88.581588 
1442.146050  	88.584137 
1442.860338  	88.591157 
1443.574625  	88.605676 
1444.288912  	88.600612 
1445.003200  	88.586820 
1445.717487  	88.577508 
1446.431774  	88.571918 
1447.146062  	88.557603 
1447.860349  	88.541805 
1448.574636  	88.526853 
1449.288923  	88.495916 
1450.003211  	88.454021 
1450.717498  	88.435136 
1451.431785  	88.414351 
1452.146073  	88.390258 
1452.860360  	88.369119 
1453.574647  	88.344231 
1454.288934  	88.320475 
1455.003222  	88.302310 
1455.717509  	88.286361 
1456.431796  	88.279079 
1457.146084  	88.277149 
1457.860371  	88.277947 
1458.574658  	88.306969 
1459.288946  	88.354388 
1460.003233  	88.382580 
1460.717520  	88.404943 
1461.431807  	88.430515 
1462.146095  	88.447714 
1462.860382  	88.479274 
1463.574669  	88.539704 
1464.288957  	88.586934 
1465.003244  	88.649002 
1465.717531  	88.754508 
1466.431819  	88.877123 
1467.146106  	89.029331 
1467.860393  	89.223204 
1468.574680  	89.426835 
1469.288968  	89.630470 
1470.003255  	89.865676 
1470.717542  	90.123668 
1471.431830  	90.376822 
1472.146117  	90.597666 
1472.860404  	90.785665 
1473.574691  	90.939573 
1474.288979  	91.063826 
1475.003266  	91.152405 
1475.717553  	91.210190 
1476.431841  	91.241349 
1477.146128  	91.250539 
1477.860415  	91.259443 
1478.574703  	91.272256 
1479.288990  	91.272103 
1480.003277  	91.270572 
1480.717564  	91.267144 
1481.431852  	91.254016 
1482.146139  	91.246179 
1482.860426  	91.252830 
1483.574714  	91.248734 
1484.289001  	91.231846 
1485.003288  	91.217914 
1485.717576  	91.201812 
1486.431863  	91.157794 
1487.146150  	91.108802 
1487.860437  	91.059404 
1488.574725  	90.997901 
1489.289012  	90.926894 
1490.003299  	90.880207 
1490.717587  	90.842963 
1491.431874  	90.781114 
1492.146161  	90.709199 
1492.860448  	90.656180 
1493.574736  	90.604295 
1494.289023  	90.535988 
1495.003310  	90.457052 
1495.717598  	90.382182 
1496.431885  	90.315648 
1497.146172  	90.246849 
1497.860460  	90.161607 
1498.574747  	90.063057 
1499.289034  	89.972629 
1500.003321  	89.910585 
1500.717609  	89.875371 
1501.431896  	89.846656 
1502.146183  	89.808619 
1502.860471  	89.771925 
1503.574758  	89.716575 
1504.289045  	89.636567 
1505.003333  	89.555414 
1505.717620  	89.488528 
1506.431907  	89.417826 
1507.146194  	89.330475 
1507.860482  	89.237006 
1508.574769  	89.149361 
1509.289056  	89.057051 
1510.003344  	88.947368 
1510.717631  	88.844991 
1511.431918  	88.766487 
1512.146205  	88.698817 
1512.860493  	88.639989 
1513.574780  	88.578050 
1514.289067  	88.506979 
1515.003355  	88.433349 
1515.717642  	88.363826 
1516.431929  	88.304539 
1517.146217  	88.239709 
1517.860504  	88.161713 
1518.574791  	88.095831 
1519.289078  	88.054347 
1520.003366  	87.995611 
1520.717653  	87.929976 
1521.431940  	87.879040 
1522.146228  	87.829283 
1522.860515  	87.780026 
1523.574802  	87.743704 
1524.289089  	87.691449 
1525.003377  	87.620585 
1525.717664  	87.558242 
1526.431951  	87.502331 
1527.146239  	87.471902 
1527.860526  	87.469598 
1528.574813  	87.448161 
1529.289101  	87.414168 
1530.003388  	87.373253 
1530.717675  	87.324464 
1531.431962  	87.279372 
1532.146250  	87.241346 
1532.860537  	87.211671 
1533.574824  	87.215753 
1534.289112  	87.210408 
1535.003399  	87.182207 
1535.717686  	87.152593 
1536.431974  	87.133474 
1537.146261  	87.101868 
1537.860548  	87.069816 
1538.574835  	87.048474 
1539.289123  	87.037321 
1540.003410  	87.035500 
1540.717697  	87.032056 
1541.431985  	87.007019 
1542.146272  	86.982640 
1542.860559  	86.964807 
1543.574846  	86.959016 
1544.289134  	86.968274 
1545.003421  	86.992552 
1545.717708  	87.044295 
1546.431996  	87.101988 
1547.146283  	87.125457 
1547.860570  	87.167245 
1548.574858  	87.250864 
1549.289145  	87.333751 
1550.003432  	87.390338 
1550.717719  	87.445979 
1551.432007  	87.526607 
1552.146294  	87.635194 
1552.860581  	87.718295 
1553.574869  	87.799664 
1554.289156  	87.899484 
1555.003443  	87.989061 
1555.717731  	88.069700 
1556.432018  	88.154460 
1557.146305  	88.231878 
1557.860592  	88.293565 
1558.574880  	88.358967 
1559.289167  	88.425380 
1560.003454  	88.484592 
1560.717742  	88.547625 
1561.432029  	88.605471 
1562.146316  	88.637988 
1562.860603  	88.668537 
1563.574891  	88.723386 
1564.289178  	88.790684 
1565.003465  	88.851032 
1565.717753  	88.879922 
1566.432040  	88.914642 
1567.146327  	88.949890 
1567.860615  	88.960220 
1568.574902  	88.959166 
1569.289189  	88.951042 
1570.003476  	88.960069 
1570.717764  	88.970222 
1571.432051  	88.967249 
1572.146338  	88.947634 
1572.860626  	88.918775 
1573.574913  	88.893786 
1574.289200  	88.874951 
1575.003488  	88.855855 
1575.717775  	88.841450 
1576.432062  	88.834358 
1577.146349  	88.811801 
1577.860637  	88.778996 
1578.574924  	88.747557 
1579.289211  	88.716575 
1580.003499  	88.684877 
1580.717786  	88.653458 
1581.432073  	88.621120 
1582.146360  	88.593485 
1582.860648  	88.581095 
1583.574935  	88.550493 
1584.289222  	88.500646 
1585.003510  	88.447074 
1585.717797  	88.392586 
1586.432084  	88.327978 
1587.146372  	88.262957 
1587.860659  	88.189455 
1588.574946  	88.113994 
1589.289233  	88.038016 
1590.003521  	87.958809 
1590.717808  	87.877892 
1591.432095  	87.795517 
1592.146383  	87.715047 
1592.860670  	87.640364 
1593.574957  	87.568266 
1594.289244  	87.501358 
1595.003532  	87.441274 
1595.717819  	87.382499 
1596.432106  	87.326145 
1597.146394  	87.272085 
1597.860681  	87.212073 
1598.574968  	87.150679 
1599.289256  	87.090503 
1600.003543  	87.036691 
1600.717830  	86.980661 
1601.432117  	86.926581 
1602.146405  	86.870068 
1602.860692  	86.815148 
1603.574979  	86.763485 
1604.289267  	86.708890 
1605.003554  	86.654293 
1605.717841  	86.606482 
1606.432129  	86.564301 
1607.146416  	86.527857 
1607.860703  	86.496223 
1608.574990  	86.458434 
1609.289278  	86.411002 
1610.003565  	86.363719 
1610.717852  	86.343712 
1611.432140  	86.324243 
1612.146427  	86.290327 
1612.860714  	86.243056 
1613.575001  	86.190316 
1614.289289  	86.131234 
1615.003576  	86.067672 
1615.717863  	86.003143 
1616.432151  	85.932748 
1617.146438  	85.864854 
1617.860725  	85.803263 
1618.575013  	85.737056 
1619.289300  	85.663219 
1620.003587  	85.580534 
1620.717874  	85.490289 
1621.432162  	85.398243 
1622.146449  	85.311203 
1622.860736  	85.236156 
1623.575024  	85.176871 
1624.289311  	85.090771 
1625.003598  	84.991276 
1625.717886  	84.899162 
1626.432173  	84.814693 
1627.146460  	84.731539 
1627.860747  	84.641743 
1628.575035  	84.548764 
1629.289322  	84.512343 
1630.003609  	84.487624 
1630.717897  	84.435923 
1631.432184  	84.378457 
1632.146471  	84.328602 
1632.860758  	84.273342 
1633.575046  	84.224507 
1634.289333  	84.186774 
1635.003620  	84.144675 
1635.717908  	84.096191 
1636.432195  	84.050648 
1637.146482  	84.012604 
1637.860770  	83.984470 
1638.575057  	83.958096 
1639.289344  	83.938468 
1640.003631  	83.948417 
1640.717919  	83.961383 
1641.432206  	83.990987 
1642.146493  	84.059045 
1642.860781  	84.083132 
1643.575068  	84.086666 
1644.289355  	84.112344 
1645.003643  	84.135379 
1645.717930  	84.133859 
1646.432217  	84.167353 
1647.146504  	84.282285 
1647.860792  	84.374223 
1648.575079  	84.453514 
1649.289366  	84.523447 
1650.003654  	84.588964 
1650.717941  	84.657383 
1651.432228  	84.727092 
1652.146515  	84.812894 
1652.860803  	84.915495 
1653.575090  	84.994717 
1654.289377  	85.070905 
1655.003665  	85.148985 
1655.717952  	85.213951 
1656.432239  	85.288266 
1657.146527  	85.384142 
1657.860814  	85.483202 
1658.575101  	85.598427 
1659.289388  	85.774607 
1660.003676  	85.984826 
1660.717963  	86.136498 
1661.432250  	86.286209 
1662.146538  	86.434245 
1662.860825  	86.595391 
1663.575112  	86.764838 
1664.289399  	86.921976 
1665.003687  	87.071546 
1665.717974  	87.219825 
1666.432261  	87.358587 
1667.146549  	87.491500 
1667.860836  	87.613269 
1668.575123  	87.726137 
1669.289411  	87.856806 
1670.003698  	87.980947 
1670.717985  	88.078092 
1671.432272  	88.165487 
1672.146560  	88.254226 
1672.860847  	88.337800 
1673.575134  	88.421820 
1674.289422  	88.507117 
1675.003709  	88.588554 
1675.717996  	88.666791 
1676.432284  	88.731938 
1677.146571  	88.792004 
1677.860858  	88.867444 
1678.575145  	88.951881 
1679.289433  	89.022460 
1680.003720  	89.079623 
1680.718007  	89.126802 
1681.432295  	89.176531 
1682.146582  	89.235186 
1682.860869  	89.274374 
1683.575156  	89.304425 
1684.289444  	89.343448 
1685.003731  	89.388956 
1685.718018  	89.432685 
1686.432306  	89.486395 
1687.146593  	89.555163 
1687.860880  	89.631021 
1688.575168  	89.714013 
1689.289455  	89.822769 
1690.003742  	90.004095 
1690.718029  	90.213721 
1691.432317  	90.427989 
1692.146604  	90.636023 
1692.860891  	90.838678 
1693.575179  	91.046147 
1694.289466  	91.349052 
1695.003753  	91.634029 
1695.718041  	91.895580 
1696.432328  	92.139488 
1697.146615  	92.364758 
1697.860902  	92.573323 
1698.575190  	92.764149 
1699.289477  	92.935651 
1700.003764  	93.092987 
1700.718052  	93.236389 
1701.432339  	93.358627 
1702.146626  	93.479430 
1702.860913  	93.620212 
1703.575201  	93.727089 
1704.289488  	93.818013 
1705.003775  	93.899922 
1705.718063  	93.976852 
1706.432350  	94.077320 
1707.146637  	94.216474 
1707.860925  	94.270574 
1708.575212  	94.319234 
1709.289499  	94.363997 
1710.003786  	94.389358 
1710.718074  	94.403224 
1711.432361  	94.422343 
1712.146648  	94.437212 
1712.860936  	94.434509 
1713.575223  	94.413757 
1714.289510  	94.373209 
1715.003798  	94.332709 
1715.718085  	94.302120 
1716.432372  	94.270232 
1717.146659  	94.239197 
1717.860947  	94.207188 
1718.575234  	94.170889 
1719.289521  	94.139831 
1720.003809  	94.113020 
1720.718096  	94.091239 
1721.432383  	94.080424 
1722.146670  	94.062317 
1722.860958  	94.032111 
1723.575245  	94.025940 
1724.289532  	94.044888 
1725.003820  	94.038799 
1725.718107  	94.002466 
1726.432394  	93.963960 
1727.146682  	93.932358 
1727.860969  	93.922187 
1728.575256  	93.934463 
1729.289543  	93.939101 
1730.003831  	93.928591 
1730.718118  	93.912712 
1731.432405  	93.904620 
1732.146693  	93.900678 
1732.860980  	93.896539 
1733.575267  	93.908578 
1734.289554  	93.932667 
1735.003842  	93.947977 
1735.718129  	93.958307 
1736.432416  	93.980936 
1737.146704  	94.005323 
1737.860991  	94.013045 
1738.575278  	94.020154 
1739.289566  	94.037740 
1740.003853  	94.069908 
1740.718140  	94.122346 
1741.432427  	94.171048 
1742.146715  	94.195089 
1742.861002  	94.222679 
1743.575289  	94.257838 
1744.289577  	94.296727 
1745.003864  	94.358385 
1745.718151  	94.443084 
1746.432439  	94.535048 
1747.146726  	94.622350 
1747.861013  	94.703043 
1748.575300  	94.786781 
1749.289588  	94.886262 
1750.003875  	94.996584 
1750.718162  	95.105515 
1751.432450  	95.215691 
1752.146737  	95.325055 
1752.861024  	95.433849 
1753.575311  	95.539544 
1754.289599  	95.629791 
1755.003886  	95.711439 
1755.718173  	95.800130 
1756.432461  	95.877349 
1757.146748  	95.946338 
1757.861035  	96.020826 
1758.575323  	96.071947 
1759.289610  	96.095523 
1760.003897  	96.117559 
1760.718184  	96.138081 
1761.432472  	96.155546 
1762.146759  	96.184052 
1762.861046  	96.209419 
1763.575334  	96.223713 
1764.289621  	96.232342 
1765.003908  	96.240106 
1765.718196  	96.247044 
1766.432483  	96.265501 
1767.146770  	96.287451 
1767.861057  	96.302340 
1768.575345  	96.319610 
1769.289632  	96.335466 
1770.003919  	96.341766 
1770.718207  	96.341058 
1771.432494  	96.337669 
1772.146781  	96.331670 
1772.861068  	96.320416 
1773.575356  	96.308830 
1774.289643  	96.312296 
1775.003930  	96.326918 
1775.718218  	96.323775 
1776.432505  	96.309907 
1777.146792  	96.299670 
1777.861080  	96.297168 
1778.575367  	96.311842 
1779.289654  	96.343616 
1780.003941  	96.358827 
1780.718229  	96.353686 
1781.432516  	96.351248 
1782.146803  	96.355119 
1782.861091  	96.355302 
1783.575378  	96.349516 
1784.289665  	96.342886 
1785.003953  	96.331806 
1785.718240  	96.316138 
1786.432527  	96.317261 
1787.146814  	96.333700 
1787.861102  	96.334389 
1788.575389  	96.316223 
1789.289676  	96.297817 
1790.003964  	96.289037 
1790.718251  	96.293552 
1791.432538  	96.306457 
1792.146825  	96.306423 
1792.861113  	96.292730 
1793.575400  	96.282585 
1794.289687  	96.274521 
1795.003975  	96.264958 
1795.718262  	96.259278 
1796.432549  	96.255027 
1797.146837  	96.249879 
1797.861124  	96.245547 
1798.575411  	96.247146 
1799.289698  	96.254166 
1800.003986  	96.248957 
1800.718273  	96.230415 
1801.432560  	96.217904 
1802.146848  	96.217965 
1802.861135  	96.223194 
1803.575422  	96.227154 
1804.289709  	96.230675 
1805.003997  	96.233740 
1805.718284  	96.237883 
1806.432571  	96.243141 
1807.146859  	96.247434 
1807.861146  	96.255702 
1808.575433  	96.267578 
1809.289721  	96.277582 
1810.004008  	96.284861 
1810.718295  	96.293384 
1811.432582  	96.299495 
1812.146870  	96.300385 
1812.861157  	96.298137 
1813.575444  	96.296619 
1814.289732  	96.296454 
1815.004019  	96.297695 
1815.718306  	96.296385 
1816.432594  	96.293973 
1817.146881  	96.291191 
1817.861168  	96.280407 
1818.575455  	96.267439 
1819.289743  	96.267057 
1820.004030  	96.273015 
1820.718317  	96.275137 
1821.432605  	96.274156 
1822.146892  	96.270629 
1822.861179  	96.262897 
1823.575466  	96.265468 
1824.289754  	96.274352 
1825.004041  	96.274445 
1825.718328  	96.265097 
1826.432616  	96.253714 
1827.146903  	96.243619 
1827.861190  	96.231680 
1828.575478  	96.218418 
1829.289765  	96.207469 
1830.004052  	96.200014 
1830.718339  	96.195965 
1831.432627  	96.199900 
1832.146914  	96.208330 
1832.861201  	96.210654 
1833.575489  	96.211641 
1834.289776  	96.214787 
1835.004063  	96.215326 
1835.718351  	96.217293 
1836.432638  	96.219156 
1837.146925  	96.201877 
1837.861212  	96.194170 
1838.575500  	96.224415 
1839.289787  	96.247220 
1840.004074  	96.251834 
1840.718362  	96.251658 
1841.432649  	96.253864 
1842.146936  	96.257543 
1842.861223  	96.258700 
1843.575511  	96.254571 
1844.289798  	96.254134 
1845.004085  	96.254928 
1845.718373  	96.248719 
1846.432660  	96.239090 
1847.146947  	96.226376 
1847.861235  	96.215655 
1848.575522  	96.205184 
1849.289809  	96.195671 
1850.004096  	96.196430 
1850.718384  	96.217506 
1851.432671  	96.240546 
1852.146958  	96.231781 
1852.861246  	96.218015 
1853.575533  	96.209889 
1854.289820  	96.199684 
1855.004108  	96.185883 
1855.718395  	96.171579 
1856.432682  	96.161160 
1857.146969  	96.163790 
1857.861257  	96.160504 
1858.575544  	96.147002 
1859.289831  	96.144099 
1860.004119  	96.151386 
1860.718406  	96.163108 
1861.432693  	96.180974 
1862.146980  	96.198715 
1862.861268  	96.196468 
1863.575555  	96.181521 
1864.289842  	96.170249 
1865.004130  	96.151882 
1865.718417  	96.126364 
1866.432704  	96.104380 
1867.146992  	96.087895 
1867.861279  	96.077595 
1868.575566  	96.074458 
1869.289853  	96.073722 
1870.004141  	96.071139 
1870.718428  	96.066208 
1871.432715  	96.067582 
1872.147003  	96.078285 
1872.861290  	96.096289 
1873.575577  	96.117597 
1874.289864  	96.140564 
1875.004152  	96.163069 
1875.718439  	96.176231 
1876.432726  	96.174275 
1877.147014  	96.167588 
1877.861301  	96.162277 
1878.575588  	96.167528 
1879.289876  	96.181303 
1880.004163  	96.190311 
1880.718450  	96.198339 
1881.432737  	96.205441 
1882.147025  	96.203988 
1882.861312  	96.201189 
1883.575599  	96.203629 
1884.289887  	96.195380 
1885.004174  	96.179627 
1885.718461  	96.170330 
1886.432749  	96.166057 
1887.147036  	96.165042 
1887.861323  	96.167617 
1888.575610  	96.162345 
1889.289898  	96.144706 
1890.004185  	96.129282 
1890.718472  	96.118442 
1891.432760  	96.119049 
1892.147047  	96.128356 
1892.861334  	96.149952 
1893.575621  	96.179983 
1894.289909  	96.200230 
1895.004196  	96.210621 
1895.718483  	96.222278 
1896.432771  	96.232747 
1897.147058  	96.232822 
1897.861345  	96.223209 
1898.575633  	96.208215 
1899.289920  	96.194621 
1900.004207  	96.179778 
1900.718494  	96.165518 
1901.432782  	96.158755 
1902.147069  	96.146322 
1902.861356  	96.123336 
1903.575644  	96.114312 
1904.289931  	96.128258 
1905.004218  	96.141580 
1905.718506  	96.151875 
1906.432793  	96.159664 
1907.147080  	96.157407 
1907.861367  	96.148097 
1908.575655  	96.142804 
1909.289942  	96.143139 
1910.004229  	96.135935 
1910.718517  	96.105342 
1911.432804  	96.059188 
1912.147091  	96.029611 
1912.861378  	96.028224 
1913.575666  	96.036660 
1914.289953  	96.044311 
1915.004240  	96.047050 
1915.718528  	96.054704 
1916.432815  	96.077606 
1917.147102  	96.099667 
1917.861390  	96.108678 
1918.575677  	96.119985 
1919.289964  	96.136383 
1920.004251  	96.147214 
1920.718539  	96.141836 
1921.432826  	96.149466 
1922.147113  	96.137372 
1922.861401  	96.091799 
1923.575688  	96.033920 
1924.289975  	95.988251 
1925.004263  	95.975617 
1925.718550  	95.978502 
1926.432837  	95.965341 
1927.147124  	95.948092 
1927.861412  	95.944576 
1928.575699  	95.962682 
1929.289986  	95.988774 
1930.004274  	95.991521 
1930.718561  	95.986793 
1931.432848  	96.011926 
1932.147135  	96.054935 
1932.861423  	96.099659 
1933.575710  	96.135935 
1934.289997  	96.147680 
1935.004285  	96.098954 
1935.718572  	96.053863 
1936.432859  	96.071612 
1937.147147  	96.114391 
1937.861434  	96.132728 
1938.575721  	96.130392 
1939.290008  	96.115104 
1940.004296  	96.096892 
1940.718583  	96.085419 
1941.432870  	96.080131 
1942.147158  	96.066084 
1942.861445  	96.054529 
1943.575732  	96.070354 
1944.290019  	96.101822 
1945.004307  	96.121101 
1945.718594  	96.112845 
1946.432881  	96.092863 
1947.147169  	96.053674 
1947.861456  	96.000736 
1948.575743  	95.968237 
1949.290031  	95.982063 
1950.004318  	96.004898 
1950.718605  	96.006647 
1951.432892  	96.004614 
1952.147180  	96.008457 
1952.861467  	96.023285 
1953.575754  	96.051679 
1954.290042  	96.084877 
1955.004329  	96.106509 
1955.718616  	96.122277 
1956.432904  	96.134982 
1957.147191  	96.131523 
1957.861478  	96.107442 
1958.575765  	96.076461 
1959.290053  	96.070227 
1960.004340  	96.060163 
1960.718627  	96.012504 
1961.432915  	95.956604 
1962.147202  	95.948188 
1962.861489  	95.981091 
1963.575776  	96.021113 
1964.290064  	96.042811 
1965.004351  	96.053309 
1965.718638  	96.070208 
1966.432926  	96.072570 
1967.147213  	96.033923 
1967.861500  	95.973697 
1968.575788  	95.913218 
1969.290075  	95.858408 
1970.004362  	95.820711 
1970.718649  	95.793910 
1971.432937  	95.759267 
1972.147224  	95.708640 
1972.861511  	95.648387 
1973.575799  	95.617772 
1974.290086  	95.645815 
1975.004373  	95.691715 
1975.718661  	95.707273 
1976.432948  	95.692840 
1977.147235  	95.649998 
1977.861522  	95.611567 
1978.575810  	95.619312 
1979.290097  	95.639516 
1980.004384  	95.633682 
1980.718672  	95.644545 
1981.432959  	95.667869 
1982.147246  	95.703644 
1982.861533  	95.760778 
1983.575821  	95.805610 
1984.290108  	95.811768 
1985.004395  	95.810350 
1985.718683  	95.848019 
1986.432970  	95.923169 
1987.147257  	95.982885 
1987.861545  	95.978837 
1988.575832  	95.941189 
1989.290119  	95.913491 
1990.004406  	95.899949 
1990.718694  	95.902817 
1991.432981  	95.925764 
1992.147268  	95.955251 
1992.861556  	95.965767 
1993.575843  	95.966211 
1994.290130  	95.962391 
1995.004418  	95.983875 
1995.718705  	96.006648 
1996.432992  	95.996132 
1997.147279  	95.964732 
1997.861567  	95.958819 
1998.575854  	95.996549 
1999.290141  	96.014534 
2000.004429  	95.981979 
2000.718716  	95.967558 
2001.433003  	96.005640 
2002.147290  	96.038819 
2002.861578  	96.050637 
2003.575865  	96.071498 
2004.290152  	96.105576 
2005.004440  	96.129522 
2005.718727  	96.119122 
2006.433014  	96.103638 
2007.147302  	96.132058 
2007.861589  	96.209786 
2008.575876  	96.280898 
2009.290163  	96.311771 
2010.004451  	96.321837 
2010.718738  	96.312489 
2011.433025  	96.259265 
2012.147313  	96.149833 
2012.861600  	96.011880 
2013.575887  	95.917556 
2014.290174  	95.880943 
2015.004462  	95.840308 
2015.718749  	95.799787 
2016.433036  	95.806596 
2017.147324  	95.825783 
2017.861611  	95.807410 
2018.575898  	95.793824 
2019.290186  	95.844097 
2020.004473  	95.928618 
2020.718760  	95.989576 
2021.433047  	96.034272 
2022.147335  	96.071702 
2022.861622  	96.079373 
2023.575909  	96.086893 
2024.290197  	96.128711 
2025.004484  	96.166526 
2025.718771  	96.183505 
2026.433059  	96.223465 
2027.147346  	96.294436 
2027.861633  	96.358658 
2028.575920  	96.404930 
2029.290208  	96.430922 
2030.004495  	96.399800 
2030.718782  	96.310302 
2031.433070  	96.219526 
2032.147357  	96.126708 
2032.861644  	95.988656 
2033.575931  	95.843396 
2034.290219  	95.751646 
2035.004506  	95.696877 
2035.718793  	95.661107 
2036.433081  	95.671485 
2037.147368  	95.712936 
2037.861655  	95.732875 
2038.575943  	95.740182 
2039.290230  	95.783201 
2040.004517  	95.862736 
2040.718804  	95.944885 
2041.433092  	96.002129 
2042.147379  	96.018784 
2042.861666  	96.015265 
2043.575954  	96.024134 
2044.290241  	96.020067 
2045.004528  	95.977725 
2045.718816  	95.934875 
2046.433103  	95.910127 
2047.147390  	95.882727 
2047.861677  	95.859437 
2048.575965  	95.839394 
2049.290252  	95.807326 
2050.004539  	95.775230 
2050.718827  	95.748623 
2051.433114  	95.741684 
2052.147401  	95.777980 
2052.861688  	95.820045 
2053.575976  	95.827479 
2054.290263  	95.812904 
2055.004550  	95.786751 
2055.718838  	95.760048 
2056.433125  	95.742187 
2057.147412  	95.725148 
2057.861700  	95.722938 
2058.575987  	95.729436 
2059.290274  	95.702626 
2060.004561  	95.649867 
2060.718849  	95.604892 
2061.433136  	95.565674 
2062.147423  	95.541655 
2062.861711  	95.552409 
2063.575998  	95.577255 
2064.290285  	95.593237 
2065.004573  	95.605973 
2065.718860  	95.614606 
2066.433147  	95.618416 
2067.147434  	95.633166 
2067.861722  	95.654134 
2068.576009  	95.668811 
2069.290296  	95.700809 
2070.004584  	95.755577 
2070.718871  	95.786838 
2071.433158  	95.772910 
2072.147445  	95.742869 
2072.861733  	95.724493 
2073.576020  	95.718026 
2074.290307  	95.715052 
2075.004595  	95.721578 
2075.718882  	95.731508 
2076.433169  	95.723138 
2077.147457  	95.717816 
2077.861744  	95.741570 
2078.576031  	95.764326 
2079.290318  	95.770376 
2080.004606  	95.769969 
2080.718893  	95.746691 
2081.433180  	95.710499 
2082.147468  	95.702338 
2082.861755  	95.715404 
2083.576042  	95.721070 
2084.290330  	95.720555 
2085.004617  	95.722361 
2085.718904  	95.726560 
2086.433191  	95.735483 
2087.147479  	95.753451 
2087.861766  	95.775633 
2088.576053  	95.792915 
2089.290341  	95.816516 
2090.004628  	95.861473 
2090.718915  	95.900689 
2091.433202  	95.891576 
2092.147490  	95.841784 
2092.861777  	95.790141 
2093.576064  	95.749221 
2094.290352  	95.724501 
2095.004639  	95.733251 
2095.718926  	95.752949 
2096.433214  	95.744046 
2097.147501  	95.724785 
2097.861788  	95.724106 
2098.576075  	95.730365 
2099.290363  	95.738764 
2100.004650  	95.747228 
2100.718937  	95.737652 
2101.433225  	95.722141 
2102.147512  	95.723535 
2102.861799  	95.726474 
2103.576086  	95.713157 
2104.290374  	95.693734 
2105.004661  	95.684178 
2105.718948  	95.686036 
2106.433236  	95.691883 
2107.147523  	95.707954 
2107.861810  	95.737604 
2108.576098  	95.760140 
2109.290385  	95.775712 
2110.004672  	95.803372 
2110.718959  	95.831364 
2111.433247  	95.849043 
2112.147534  	95.858030 
2112.861821  	95.841134 
2113.576109  	95.810857 
2114.290396  	95.803541 
2115.004683  	95.804102 
2115.718971  	95.789046 
2116.433258  	95.775290 
2117.147545  	95.770485 
2117.861832  	95.761884 
2118.576120  	95.749103 
2119.290407  	95.743216 
2120.004694  	95.743806 
2120.718982  	95.743685 
2121.433269  	95.758655 
2122.147556  	95.792819 
2122.861843  	95.815729 
2123.576131  	95.832847 
2124.290418  	95.858271 
2125.004705  	95.857991 
2125.718993  	95.849738 
2126.433280  	95.887110 
2127.147567  	95.927042 
2127.861855  	95.922211 
2128.576142  	95.919537 
2129.290429  	95.944349 
2130.004716  	95.960118 
2130.719004  	95.957588 
2131.433291  	95.961369 
2132.147578  	95.968729 
2132.861866  	95.962875 
2133.576153  	95.966052 
2134.290440  	95.982768 
2135.004728  	95.964828 
2135.719015  	95.920426 
2136.433302  	95.904903 
2137.147589  	95.911076 
2137.861877  	95.920413 
2138.576164  	95.948839 
2139.290451  	95.977029 
2140.004739  	95.965391 
2140.719026  	95.931315 
2141.433313  	95.927618 
2142.147600  	95.941869 
2142.861888  	95.912903 
2143.576175  	95.861512 
2144.290462  	95.841705 
2145.004750  	95.826925 
2145.719037  	95.801935 
2146.433324  	95.792382 
2147.147612  	95.781464 
2147.861899  	95.779321 
2148.576186  	95.827862 
2149.290473  	95.895324 
2150.004761  	95.948489 
2150.719048  	95.996049 
2151.433335  	96.007465 
2152.147623  	95.971462 
2152.861910  	95.942586 
2153.576197  	95.939150 
2154.290485  	95.931241 
2155.004772  	95.896653 
2155.719059  	95.837926 
2156.433346  	95.792038 
2157.147634  	95.775210 
2157.861921  	95.758892 
2158.576208  	95.727772 
2159.290496  	95.670774 
2160.004783  	95.593538 
2160.719070  	95.558575 
2161.433357  	95.568218 
2162.147645  	95.547756 
2162.861932  	95.492785 
2163.576219  	95.432962 
2164.290507  	95.359976 
2165.004794  	95.302558 
2165.719081  	95.303966 
2166.433369  	95.344858 
2167.147656  	95.391881 
2167.861943  	95.444198 
2168.576230  	95.497072 
2169.290518  	95.526832 
2170.004805  	95.539157 
2170.719092  	95.575682 
2171.433380  	95.620001 
2172.147667  	95.620328 
2172.861954  	95.606683 
2173.576241  	95.614866 
2174.290529  	95.588661 
2175.004816  	95.507039 
2175.719103  	95.427325 
2176.433391  	95.379185 
2177.147678  	95.360023 
2177.861965  	95.361306 
2178.576253  	95.380925 
2179.290540  	95.435462 
2180.004827  	95.492362 
2180.719114  	95.504106 
2181.433402  	95.509258 
2182.147689  	95.545268 
2182.861976  	95.602453 
2183.576264  	95.686114 
2184.290551  	95.754659 
2185.004838  	95.759041 
2185.719126  	95.734343 
2186.433413  	95.697393 
2187.147700  	95.644690 
2187.861987  	95.613732 
2188.576275  	95.598269 
2189.290562  	95.583593 
2190.004849  	95.580832 
2190.719137  	95.557575 
2191.433424  	95.529780 
2192.147711  	95.548435 
2192.861998  	95.568709 
2193.576286  	95.566262 
2194.290573  	95.579930 
2195.004860  	95.591356 
2195.719148  	95.590480 
2196.433435  	95.615400 
2197.147722  	95.670096 
2197.862010  	95.726812 
2198.576297  	95.760383 
2199.290584  	95.764048 
2200.004871  	95.739299 
2200.719159  	95.671932 
2201.433446  	95.590186 
2202.147733  	95.541395 
2202.862021  	95.498552 
2203.576308  	95.436156 
2204.290595  	95.391044 
2205.004883  	95.383048 
2205.719170  	95.386339 
2206.433457  	95.364951 
2207.147744  	95.333280 
2207.862032  	95.357783 
2208.576319  	95.441654 
2209.290606  	95.526474 
2210.004894  	95.598968 
2210.719181  	95.660693 
2211.433468  	95.698379 
2212.147755  	95.713627 
2212.862043  	95.700221 
2213.576330  	95.666576 
2214.290617  	95.651795 
2215.004905  	95.644899 
2215.719192  	95.614239 
2216.433479  	95.589460 
2217.147767  	95.594530 
2217.862054  	95.610250 
2218.576341  	95.629075 
2219.290628  	95.657037 
2220.004916  	95.704993 
2220.719203  	95.765912 
2221.433490  	95.782579 
2222.147778  	95.732367 
2222.862065  	95.680845 
2223.576352  	95.665512 
2224.290640  	95.658166 
2225.004927  	95.642907 
2225.719214  	95.622242 
2226.433501  	95.598184 
2227.147789  	95.570389 
2227.862076  	95.530478 
2228.576363  	95.495577 
2229.290651  	95.495918 
2230.004938  	95.511260 
2230.719225  	95.513962 
2231.433512  	95.527586 
2232.147800  	95.566003 
2232.862087  	95.596950 
2233.576374  	95.595756 
2234.290662  	95.568967 
2235.004949  	95.533066 
2235.719236  	95.510014 
2236.433524  	95.514678 
2237.147811  	95.533935 
2237.862098  	95.544871 
2238.576385  	95.549480 
2239.290673  	95.560888 
2240.004960  	95.574648 
2240.719247  	95.585426 
2241.433535  	95.606859 
2242.147822  	95.642051 
2242.862109  	95.667613 
2243.576396  	95.669258 
2244.290684  	95.666191 
2245.004971  	95.678100 
2245.719258  	95.689238 
2246.433546  	95.682382 
2247.147833  	95.676140 
2247.862120  	95.682155 
2248.576408  	95.684749 
2249.290695  	95.681780 
2250.004982  	95.673439 
2250.719269  	95.655145 
2251.433557  	95.654521 
2252.147844  	95.684570 
2252.862131  	95.706647 
2253.576419  	95.709071 
2254.290706  	95.720305 
2255.004993  	95.739397 
2255.719281  	95.743456 
2256.433568  	95.727220 
2257.147855  	95.703017 
2257.862142  	95.685820 
2258.576430  	95.677631 
2259.290717  	95.672448 
2260.005004  	95.667336 
2260.719292  	95.656331 
2261.433579  	95.640906 
2262.147866  	95.631977 
2262.862153  	95.625534 
2263.576441  	95.610837 
2264.290728  	95.592665 
2265.005015  	95.574943 
2265.719303  	95.554414 
2266.433590  	95.540567 
2267.147877  	95.538714 
2267.862165  	95.531035 
2268.576452  	95.512802 
2269.290739  	95.505635 
2270.005026  	95.517977 
2270.719314  	95.537123 
2271.433601  	95.552836 
2272.147888  	95.563577 
2272.862176  	95.568091 
2273.576463  	95.566278 
2274.290750  	95.568474 
2275.005038  	95.573399 
2275.719325  	95.558416 
2276.433612  	95.529159 
2277.147899  	95.512931 
2277.862187  	95.507835 
2278.576474  	95.502440 
2279.290761  	95.493012 
2280.005049  	95.473252 
2280.719336  	95.454145 
2281.433623  	95.454344 
2282.147910  	95.472297 
2282.862198  	95.491131 
2283.576485  	95.497293 
2284.290772  	95.499570 
2285.005060  	95.504821 
2285.719347  	95.493723 
2286.433634  	95.468197 
2287.147922  	95.453689 
2287.862209  	95.450872 
2288.576496  	95.452712 
2289.290783  	95.463754 
2290.005071  	95.477823 
2290.719358  	95.484281 
2291.433645  	95.489712 
2292.147933  	95.505906 
2292.862220  	95.529721 
2293.576507  	95.550375 
2294.290795  	95.574412 
2295.005082  	95.597759 
2295.719369  	95.612175 
2296.433656  	95.625783 
2297.147944  	95.639391 
2297.862231  	95.646810 
2298.576518  	95.652724 
2299.290806  	95.653719 
2300.005093  	95.652839 
2300.719380  	95.663406 
2301.433667  	95.673200 
2302.147955  	95.670434 
2302.862242  	95.667058 
2303.576529  	95.660187 
2304.290817  	95.655385 
2305.005104  	95.658066 
2305.719391  	95.645791 
2306.433679  	95.625551 
2307.147966  	95.619656 
2307.862253  	95.606856 
2308.576540  	95.593680 
2309.290828  	95.591145 
2310.005115  	95.582596 
2310.719402  	95.581196 
2311.433690  	95.584854 
2312.147977  	95.568739 
2312.862264  	95.562216 
2313.576551  	95.569798 
2314.290839  	95.559315 
2315.005126  	95.549510 
2315.719413  	95.550812 
2316.433701  	95.547980 
2317.147988  	95.557828 
2317.862275  	95.571079 
2318.576563  	95.568959 
2319.290850  	95.567301 
2320.005137  	95.564028 
2320.719424  	95.553043 
2321.433712  	95.549536 
2322.147999  	95.548724 
2322.862286  	95.555489 
2323.576574  	95.578447 
2324.290861  	95.593936 
2325.005148  	95.599392 
2325.719436  	95.609182 
2326.433723  	95.615935 
2327.148010  	95.625390 
2327.862297  	95.644829 
2328.576585  	95.664877 
2329.290872  	95.684117 
2330.005159  	95.695920 
2330.719447  	95.695690 
2331.433734  	95.697328 
2332.148021  	95.699478 
2332.862308  	95.702328 
2333.576596  	95.712293 
2334.290883  	95.721058 
2335.005170  	95.725521 
2335.719458  	95.736570 
2336.433745  	95.754149 
2337.148032  	95.769652 
2337.862320  	95.773479 
2338.576607  	95.766946 
2339.290894  	95.764782 
2340.005181  	95.763609 
2340.719469  	95.753817 
2341.433756  	95.740823 
2342.148043  	95.717944 
2342.862331  	95.685913 
2343.576618  	95.664045 
2344.290905  	95.653064 
2345.005193  	95.640961 
2345.719480  	95.639902 
2346.433767  	95.649782 
2347.148054  	95.654246 
2347.862342  	95.654609 
2348.576629  	95.658627 
2349.290916  	95.676982 
2350.005204  	95.711530 
2350.719491  	95.734952 
2351.433778  	95.748271 
2352.148065  	95.780537 
2352.862353  	95.819056 
2353.576640  	95.836385 
2354.290927  	95.830543 
2355.005215  	95.818205 
2355.719502  	95.818257 
2356.433789  	95.823723 
2357.148077  	95.830786 
2357.862364  	95.851695 
2358.576651  	95.877367 
2359.290938  	95.882968 
2360.005226  	95.861690 
2360.719513  	95.823138 
2361.433800  	95.782770 
2362.148088  	95.759201 
2362.862375  	95.746187 
2363.576662  	95.720546 
2364.290950  	95.692462 
2365.005237  	95.674712 
2365.719524  	95.645216 
2366.433811  	95.597659 
2367.148099  	95.556036 
2367.862386  	95.542783 
2368.576673  	95.552232 
2369.290961  	95.562788 
2370.005248  	95.577050 
2370.719535  	95.592040 
2371.433822  	95.582819 
2372.148110  	95.556590 
2372.862397  	95.531222 
2373.576684  	95.510236 
2374.290972  	95.500006 
2375.005259  	95.495719 
2375.719546  	95.491423 
2376.433834  	95.487444 
2377.148121  	95.478107 
2377.862408  	95.473013 
2378.576695  	95.480434 
2379.290983  	95.488692 
2380.005270  	95.498652 
2380.719557  	95.518315 
2381.433845  	95.537396 
2382.148132  	95.550135 
2382.862419  	95.551783 
2383.576706  	95.541403 
2384.290994  	95.528127 
2385.005281  	95.522820 
2385.719568  	95.527678 
2386.433856  	95.532905 
2387.148143  	95.529972 
2387.862430  	95.526271 
2388.576718  	95.526954 
2389.291005  	95.525107 
2390.005292  	95.523515 
2390.719579  	95.531017 
2391.433867  	95.543899 
2392.148154  	95.555198 
2392.862441  	95.562716 
2393.576729  	95.565912 
2394.291016  	95.565414 
2395.005303  	95.564312 
2395.719591  	95.558526 
2396.433878  	95.550928 
2397.148165  	95.549016 
2397.862452  	95.552975 
2398.576740  	95.553809 
2399.291027  	95.546815 
2400.005314  	95.540018 
2400.719602  	95.538727 
2401.433889  	95.535266 
2402.148176  	95.528352 
2402.862463  	95.527830 
2403.576751  	95.532376 
2404.291038  	95.532499 
2405.005325  	95.528024 
2405.719613  	95.521142 
2406.433900  	95.512961 
2407.148187  	95.508108 
2407.862475  	95.506010 
2408.576762  	95.503937 
2409.291049  	95.506589 
2410.005336  	95.515512 
2410.719624  	95.524281 
2411.433911  	95.529194 
2412.148198  	95.532503 
2412.862486  	95.538879 
2413.576773  	95.549235 
2414.291060  	95.557716 
2415.005348  	95.561881 
2415.719635  	95.566546 
2416.433922  	95.569140 
2417.148209  	95.559336 
2417.862497  	95.539912 
2418.576784  	95.524927 
2419.291071  	95.517021 
2420.005359  	95.508715 
2420.719646  	95.497192 
2421.433933  	95.484616 
2422.148220  	95.473619 
2422.862508  	95.465759 
2423.576795  	95.460236 
2424.291082  	95.453340 
2425.005370  	95.444245 
2425.719657  	95.441750 
2426.433944  	95.448819 
2427.148232  	95.452874 
2427.862519  	95.451877 
2428.576806  	95.456371 
2429.291093  	95.459116 
2430.005381  	95.445613 
2430.719668  	95.422615 
2431.433955  	95.404722 
2432.148243  	95.390466 
2432.862530  	95.373109 
2433.576817  	95.359160 
2434.291105  	95.354378 
2435.005392  	95.354334 
2435.719679  	95.358992 
2436.433966  	95.366007 
2437.148254  	95.368474 
2437.862541  	95.373448 
2438.576828  	95.386288 
2439.291116  	95.398263 
2440.005403  	95.407169 
2440.719690  	95.415594 
2441.433977  	95.423093 
2442.148265  	95.427785 
2442.862552  	95.421134 
2443.576839  	95.403322 
2444.291127  	95.390369 
2445.005414  	95.389278 
2445.719701  	95.394840 
2446.433989  	95.401864 
2447.148276  	95.405673 
2447.862563  	95.406243 
2448.576850  	95.403106 
2449.291138  	95.392190 
2450.005425  	95.380698 
2450.719712  	95.381285 
2451.434000  	95.387931 
2452.148287  	95.384934 
2452.862574  	95.376688 
2453.576861  	95.380708 
2454.291149  	95.395617 
2455.005436  	95.406393 
2455.719723  	95.408796 
2456.434011  	95.407482 
2457.148298  	95.409645 
2457.862585  	95.418903 
2458.576873  	95.426060 
2459.291160  	95.424018 
2460.005447  	95.417012 
2460.719734  	95.404497 
2461.434022  	95.387230 
2462.148309  	95.379607 
2462.862596  	95.386871 
2463.576884  	95.392663 
2464.291171  	95.385139 
2465.005458  	95.375157 
2465.719746  	95.379203 
2466.434033  	95.394693 
2467.148320  	95.402284 
2467.862607  	95.394136 
2468.576895  	95.382062 
2469.291182  	95.373311 
2470.005469  	95.364162 
2470.719757  	95.353041 
2471.434044  	95.336684 
2472.148331  	95.312743 
2472.862618  	95.290748 
2473.576906  	95.278491 
2474.291193  	95.273916 
2475.005480  	95.274326 
2475.719768  	95.275661 
2476.434055  	95.277512 
2477.148342  	95.288284 
2477.862630  	95.310705 
2478.576917  	95.334747 
2479.291204  	95.347252 
2480.005491  	95.344700 
2480.719779  	95.337081 
2481.434066  	95.329597 
2482.148353  	95.316921 
2482.862641  	95.301302 
2483.576928  	95.287613 
2484.291215  	95.273155 
2485.005503  	95.262635 
2485.719790  	95.264891 
2486.434077  	95.271451 
2487.148364  	95.267007 
2487.862652  	95.256939 
2488.576939  	95.257951 
2489.291226  	95.265853 
2490.005514  	95.264897 
2490.719801  	95.254467 
2491.434088  	95.235215 
2492.148375  	95.206733 
2492.862663  	95.184678 
2493.576950  	95.171725 
2494.291237  	95.151362 
2495.005525  	95.132629 
2495.719812  	95.132345 
2496.434099  	95.141466 
2497.148387  	95.154427 
2497.862674  	95.172146 
2498.576961  	95.185624 
2499.291248  	95.193649 
2500.005536  	95.198749 
2500.719823  	95.202009 
2501.434110  	95.211152 
2502.148398  	95.218351 
2502.862685  	95.209810 
2503.576972  	95.193942 
2504.291260  	95.178889 
2505.005547  	95.171102 
2505.719834  	95.179661 
2506.434121  	95.186083 
2507.148409  	95.177682 
2507.862696  	95.177066 
2508.576983  	95.186994 
2509.291271  	95.192102 
2510.005558  	95.195919 
2510.719845  	95.193218 
2511.434132  	95.178321 
2512.148420  	95.170189 
2512.862707  	95.173619 
2513.576994  	95.176301 
2514.291282  	95.177549 
2515.005569  	95.172475 
2515.719856  	95.157900 
2516.434144  	95.149651 
2517.148431  	95.154962 
2517.862718  	95.166851 
2518.577005  	95.180135 
2519.291293  	95.186079 
2520.005580  	95.184881 
2520.719867  	95.189869 
2521.434155  	95.197323 
2522.148442  	95.193364 
2522.862729  	95.180749 
2523.577016  	95.169323 
2524.291304  	95.167116 
2525.005591  	95.176844 
2525.719878  	95.184632 
2526.434166  	95.175737 
2527.148453  	95.157208 
2527.862740  	95.143884 
2528.577028  	95.138487 
2529.291315  	95.138450 
2530.005602  	95.143970 
2530.719889  	95.150067 
2531.434177  	95.151099 
2532.148464  	95.152378 
2532.862751  	95.156248 
2533.577039  	95.154781 
2534.291326  	95.144819 
2535.005613  	95.129182 
2535.719901  	95.115245 
2536.434188  	95.113959 
2537.148475  	95.123813 
2537.862762  	95.132073 
2538.577050  	95.130909 
2539.291337  	95.122170 
2540.005624  	95.115566 
2540.719912  	95.111970 
2541.434199  	95.100649 
2542.148486  	95.088014 
2542.862773  	95.089877 
2543.577061  	95.098560 
2544.291348  	95.099365 
2545.005635  	95.096190 
2545.719923  	95.095728 
2546.434210  	95.094217 
2547.148497  	95.089669 
2547.862785  	95.083667 
2548.577072  	95.076841 
2549.291359  	95.079018 
2550.005646  	95.097573 
2550.719934  	95.118700 
2551.434221  	95.131478 
2552.148508  	95.137700 
2552.862796  	95.133977 
2553.577083  	95.123718 
2554.291370  	95.115627 
2555.005658  	95.108503 
2555.719945  	95.105909 
2556.434232  	95.107143 
2557.148519  	95.100754 
2557.862807  	95.093388 
2558.577094  	95.093497 
2559.291381  	95.092079 
2560.005669  	95.088171 
2560.719956  	95.084368 
2561.434243  	95.080304 
2562.148530  	95.082036 
2562.862818  	95.084724 
2563.577105  	95.083509 
2564.291392  	95.085564 
2565.005680  	95.080655 
2565.719967  	95.062040 
2566.434254  	95.048779 
2567.148542  	95.041790 
2567.862829  	95.028789 
2568.577116  	95.015277 
2569.291403  	95.000722 
2570.005691  	94.983023 
2570.719978  	94.975145 
2571.434265  	94.977077 
2572.148553  	94.980457 
2572.862840  	94.989505 
2573.577127  	95.001397 
2574.291415  	95.006155 
2575.005702  	95.005561 
2575.719989  	95.006338 
2576.434276  	95.011854 
2577.148564  	95.018505 
2577.862851  	95.019303 
2578.577138  	95.018634 
2579.291426  	95.022501 
2580.005713  	95.024871 
2580.720000  	95.023145 
2581.434287  	95.019532 
2582.148575  	95.011402 
2582.862862  	95.003298 
2583.577149  	95.003011 
2584.291437  	95.004987 
2585.005724  	95.004321 
2585.720011  	95.005701 
2586.434299  	95.007001 
2587.148586  	95.004056 
2587.862873  	95.003028 
2588.577160  	95.004952 
2589.291448  	95.002326 
2590.005735  	94.997600 
2590.720022  	94.996927 
2591.434310  	94.994925 
2592.148597  	94.986936 
2592.862884  	94.979830 
2593.577171  	94.976691 
2594.291459  	94.966800 
2595.005746  	94.945001 
2595.720033  	94.924640 
2596.434321  	94.916152 
2597.148608  	94.913240 
2597.862895  	94.908051 
2598.577183  	94.902320 
2599.291470  	94.902853 
2600.005757  	94.909355 
2600.720044  	94.912842 
2601.434332  	94.910573 
2602.148619  	94.905692 
2602.862906  	94.901290 
2603.577194  	94.903322 
2604.291481  	94.906837 
2605.005768  	94.900959 
2605.720056  	94.890939 
2606.434343  	94.880022 
2607.148630  	94.866913 
2607.862917  	94.863567 
2608.577205  	94.868676 
2609.291492  	94.868758 
2610.005779  	94.867529 
2610.720067  	94.867319 
2611.434354  	94.867579 
2612.148641  	94.875286 
2612.862928  	94.881029 
2613.577216  	94.875459 
2614.291503  	94.867600 
2615.005790  	94.857331 
2615.720078  	94.844024 
2616.434365  	94.835077 
2617.148652  	94.824406 
2617.862940  	94.809346 
2618.577227  	94.797350 
2619.291514  	94.788605 
2620.005801  	94.787517 
2620.720089  	94.792880 
2621.434376  	94.788222 
2622.148663  	94.775780 
2622.862951  	94.770810 
2623.577238  	94.771940 
2624.291525  	94.773733 
2625.005813  	94.772424 
2625.720100  	94.762064 
2626.434387  	94.746056 
2627.148674  	94.732149 
2627.862962  	94.722029 
2628.577249  	94.713744 
2629.291536  	94.705667 
2630.005824  	94.701232 
2630.720111  	94.702820 
2631.434398  	94.706675 
2632.148685  	94.712539 
2632.862973  	94.719889 
2633.577260  	94.722600 
2634.291547  	94.718826 
2635.005835  	94.709624 
2635.720122  	94.696514 
2636.434409  	94.684206 
2637.148697  	94.671902 
2637.862984  	94.655330 
2638.577271  	94.636383 
2639.291558  	94.618862 
2640.005846  	94.604617 
2640.720133  	94.591527 
2641.434420  	94.576709 
2642.148708  	94.565826 
2642.862995  	94.564229 
2643.577282  	94.569107 
2644.291570  	94.578314 
2645.005857  	94.588781 
2645.720144  	94.596218 
2646.434431  	94.600746 
2647.148719  	94.599886 
2647.863006  	94.591975 
2648.577293  	94.585237 
2649.291581  	94.585477 
2650.005868  	94.587582 
2650.720155  	94.585011 
2651.434442  	94.577963 
2652.148730  	94.571529 
2652.863017  	94.567278 
2653.577304  	94.563384 
2654.291592  	94.561290 
2655.005879  	94.562607 
2655.720166  	94.566120 
2656.434454  	94.570418 
2657.148741  	94.573632 
2657.863028  	94.574292 
2658.577315  	94.572815 
2659.291603  	94.569532 
2660.005890  	94.563190 
2660.720177  	94.554230 
2661.434465  	94.548322 
2662.148752  	94.548468 
2662.863039  	94.549129 
2663.577326  	94.546777 
2664.291614  	94.543236 
2665.005901  	94.539177 
2665.720188  	94.535664 
2666.434476  	94.533823 
2667.148763  	94.532637 
2667.863050  	94.530749 
2668.577338  	94.526423 
2669.291625  	94.520834 
2670.005912  	94.517266 
2670.720199  	94.515024 
2671.434487  	94.512658 
2672.148774  	94.508271 
2672.863061  	94.499938 
2673.577349  	94.492758 
2674.291636  	94.488608 
2675.005923  	94.482464 
2675.720211  	94.478619 
2676.434498  	94.480055 
2677.148785  	94.476480 
2677.863072  	94.465959 
2678.577360  	94.458904 
2679.291647  	94.458164 
2680.005934  	94.456187 
2680.720222  	94.446914 
2681.434509  	94.434529 
2682.148796  	94.426028 
2682.863083  	94.420500 
2683.577371  	94.415702 
2684.291658  	94.410943 
2685.005945  	94.404761 
2685.720233  	94.400500 
2686.434520  	94.399579 
2687.148807  	94.398010 
2687.863095  	94.398482 
2688.577382  	94.402527 
2689.291669  	94.402632 
2690.005956  	94.397873 
2690.720244  	94.394067 
2691.434531  	94.392391 
2692.148818  	94.389965 
2692.863106  	94.381335 
2693.577393  	94.366436 
2694.291680  	94.353619 
2695.005968  	94.343749 
2695.720255  	94.330866 
2696.434542  	94.315791 
2697.148829  	94.300445 
2697.863117  	94.284414 
2698.577404  	94.270780 
2699.291691  	94.262355 
2700.005979  	94.257630 
2700.720266  	94.251144 
2701.434553  	94.239324 
2702.148840  	94.228771 
2702.863128  	94.224663 
2703.577415  	94.220811 
2704.291702  	94.215956 
2705.005990  	94.214715 
2705.720277  	94.213540 
2706.434564  	94.210408 
2707.148852  	94.208418 
2707.863139  	94.204504 
2708.577426  	94.198135 
2709.291713  	94.194512 
2710.006001  	94.192217 
2710.720288  	94.190028 
2711.434575  	94.191092 
2712.148863  	94.192341 
2712.863150  	94.190275 
2713.577437  	94.187058 
2714.291725  	94.184947 
2715.006012  	94.185981 
2715.720299  	94.187621 
2716.434586  	94.184915 
2717.148874  	94.181551 
2717.863161  	94.179001 
2718.577448  	94.171566 
2719.291736  	94.162006 
2720.006023  	94.154871 
2720.720310  	94.149057 
2721.434597  	94.147835 
2722.148885  	94.151286 
2722.863172  	94.152533 
2723.577459  	94.150376 
2724.291747  	94.147116 
2725.006034  	94.145181 
2725.720321  	94.148268 
2726.434609  	94.155767 
2727.148896  	94.164841 
2727.863183  	94.171851 
2728.577470  	94.172079 
2729.291758  	94.168116 
2730.006045  	94.164369 
2730.720332  	94.159263 
2731.434620  	94.153805 
2732.148907  	94.149716 
2732.863194  	94.145003 
2733.577481  	94.140391 
2734.291769  	94.136218 
2735.006056  	94.129718 
2735.720343  	94.120206 
2736.434631  	94.110209 
2737.148918  	94.104771 
2737.863205  	94.104105 
2738.577493  	94.101767 
2739.291780  	94.096617 
2740.006067  	94.089439 
2740.720354  	94.078577 
2741.434642  	94.069655 
2742.148929  	94.065013 
2742.863216  	94.057204 
2743.577504  	94.047279 
2744.291791  	94.039999 
2745.006078  	94.031842 
2745.720366  	94.021842 
2746.434653  	94.011488 
2747.148940  	94.000611 
2747.863227  	93.993283 
2748.577515  	93.991329 
2749.291802  	93.991798 
2750.006089  	93.993718 
2750.720377  	93.994137 
2751.434664  	93.989872 
2752.148951  	93.982794 
2752.863238  	93.976013 
2753.577526  	93.974865 
2754.291813  	93.980589 
2755.006100  	93.983742 
2755.720388  	93.981950 
2756.434675  	93.982786 
2757.148962  	93.984701 
2757.863250  	93.981942 
2758.577537  	93.974741 
2759.291824  	93.964682 
2760.006111  	93.955248 
2760.720399  	93.948141 
2761.434686  	93.938717 
2762.148973  	93.925303 
2762.863261  	93.910462 
2763.577548  	93.894537 
2764.291835  	93.879137 
2765.006123  	93.868323 
2765.720410  	93.863531 
2766.434697  	93.862681 
2767.148984  	93.863139 
2767.863272  	93.863990 
2768.577559  	93.865047 
2769.291846  	93.865525 
2770.006134  	93.863365 
2770.720421  	93.855814 
2771.434708  	93.844045 
2772.148995  	93.831335 
2772.863283  	93.817732 
2773.577570  	93.804451 
2774.291857  	93.792836 
2775.006145  	93.779866 
2775.720432  	93.766537 
2776.434719  	93.757078 
2777.149007  	93.749841 
2777.863294  	93.742929 
2778.577581  	93.737125 
2779.291868  	93.732627 
2780.006156  	93.729759 
2780.720443  	93.723880 
2781.434730  	93.710384 
2782.149018  	93.694691 
2782.863305  	93.678435 
2783.577592  	93.656953 
2784.291880  	93.635614 
2785.006167  	93.618947 
2785.720454  	93.602722 
2786.434741  	93.587976 
2787.149029  	93.573979 
2787.863316  	93.555329 
2788.577603  	93.537450 
2789.291891  	93.525634 
2790.006178  	93.516309 
2790.720465  	93.511040 
2791.434752  	93.510120 
2792.149040  	93.506201 
2792.863327  	93.497019 
2793.577614  	93.484232 
2794.291902  	93.469864 
2795.006189  	93.457024 
2795.720476  	93.443397 
2796.434764  	93.428496 
2797.149051  	93.416820 
2797.863338  	93.404115 
2798.577625  	93.386181 
2799.291913  	93.368865 
2800.006200  	93.352937 
2800.720487  	93.334429 
2801.434775  	93.314946 
2802.149062  	93.296039 
2802.863349  	93.277520 
2803.577636  	93.259330 
2804.291924  	93.239544 
2805.006211  	93.216875 
2805.720498  	93.190867 
2806.434786  	93.162118 
2807.149073  	93.133837 
2807.863360  	93.106456 
2808.577648  	93.079370 
2809.291935  	93.055586 
2810.006222  	93.033656 
2810.720509  	93.009924 
2811.434797  	92.988618 
2812.149084  	92.972343 
2812.863371  	92.954903 
2813.577659  	92.932635 
2814.291946  	92.909909 
2815.006233  	92.892239 
2815.720521  	92.878790 
2816.434808  	92.864957 
2817.149095  	92.850242 
2817.863382  	92.833320 
2818.577670  	92.810172 
2819.291957  	92.784543 
2820.006244  	92.760103 
2820.720532  	92.731770 
2821.434819  	92.699563 
2822.149106  	92.666546 
2822.863393  	92.628240 
2823.577681  	92.584743 
2824.291968  	92.542417 
2825.006255  	92.500218 
2825.720543  	92.452708 
2826.434830  	92.400577 
2827.149117  	92.350786 
2827.863405  	92.305182 
2828.577692  	92.256884 
2829.291979  	92.206656 
2830.006266  	92.161241 
2830.720554  	92.115082 
2831.434841  	92.061669 
2832.149128  	92.004833 
2832.863416  	91.942557 
2833.577703  	91.867695 
2834.291990  	91.784029 
2835.006278  	91.698806 
2835.720565  	91.608787 
2836.434852  	91.509847 
2837.149139  	91.406212 
2837.863427  	91.294074 
2838.577714  	91.159900 
2839.292001  	91.004967 
2840.006289  	90.837872 
2840.720576  	90.652912 
2841.434863  	90.445381 
2842.149150  	90.219740 
2842.863438  	89.974141 
2843.577725  	89.704826 
2844.292012  	89.416541 
2845.006300  	89.116398 
2845.720587  	88.809247 
2846.434874  	88.502851 
2847.149162  	88.210127 
2847.863449  	87.940427 
2848.577736  	87.697422 
2849.292023  	87.490874 
2850.006311  	87.333835 
2850.720598  	87.228634 
2851.434885  	87.174362 
2852.149173  	87.178495 
2852.863460  	87.244990 
2853.577747  	87.365624 
2854.292035  	87.532686 
2855.006322  	87.744014 
2855.720609  	87.992061 
2856.434896  	88.263036 
2857.149184  	88.547027 
2857.863471  	88.837081 
2858.577758  	89.124171 
2859.292046  	89.401414 
2860.006333  	89.662998 
2860.720620  	89.901725 
2861.434907  	90.115886 
2862.149195  	90.306161 
2862.863482  	90.470434 
2863.577769  	90.610059 
2864.292057  	90.725998 
2865.006344  	90.816889 
2865.720631  	90.889140 
2866.434919  	90.947856 
2867.149206  	90.990221 
2867.863493  	91.020835 
2868.577780  	91.044117 
2869.292068  	91.052840 
2870.006355  	91.048722 
2870.720642  	91.044005 
2871.434930  	91.041969 
2872.149217  	91.041101 
2872.863504  	91.040584 
2873.577791  	91.037944 
2874.292079  	91.032879 
2875.006366  	91.023837 
2875.720653  	91.009795 
2876.434941  	90.994960 
2877.149228  	90.977865 
2877.863515  	90.956363 
2878.577803  	90.936657 
2879.292090  	90.915325 
2880.006377  	90.884025 
2880.720664  	90.848883 
2881.434952  	90.812638 
2882.149239  	90.769108 
2882.863526  	90.722865 
2883.577814  	90.680012 
2884.292101  	90.636569 
2885.006388  	90.587912 
2885.720676  	90.532462 
2886.434963  	90.472583 
2887.149250  	90.410843 
2887.863537  	90.344806 
2888.577825  	90.276764 
2889.292112  	90.211504 
2890.006399  	90.145528 
2890.720687  	90.077415 
2891.434974  	90.010255 
2892.149261  	89.943227 
2892.863548  	89.876377 
2893.577836  	89.809634 
2894.292123  	89.740678 
2895.006410  	89.670467 
2895.720698  	89.598738 
2896.434985  	89.522992 
2897.149272  	89.443347 
2897.863560  	89.359642 
2898.577847  	89.273053 
2899.292134  	89.185943 
2900.006421  	89.095289 
2900.720709  	88.997309 
2901.434996  	88.893508 
2902.149283  	88.787764 
2902.863571  	88.681943 
2903.577858  	88.574334 
2904.292145  	88.463933 
2905.006433  	88.349188 
2905.720720  	88.225428 
2906.435007  	88.092991 
2907.149294  	87.953097 
2907.863582  	87.801177 
2908.577869  	87.636445 
2909.292156  	87.458843 
2910.006444  	87.266966 
2910.720731  	87.066516 
2911.435018  	86.858103 
2912.149305  	86.636170 
2912.863593  	86.403404 
2913.577880  	86.164196 
2914.292167  	85.924216 
2915.006455  	85.692128 
2915.720742  	85.469355 
2916.435029  	85.257110 
2917.149317  	85.059218 
2917.863604  	84.877540 
2918.577891  	84.721481 
2919.292178  	84.599593 
2920.006466  	84.510524 
2920.720753  	84.456518 
2921.435040  	84.440568 
2922.149328  	84.461555 
2922.863615  	84.522431 
2923.577902  	84.623370 
2924.292190  	84.758675 
2925.006477  	84.923691 
2925.720764  	85.112675 
2926.435051  	85.322591 
2927.149339  	85.552296 
2927.863626  	85.792586 
2928.577913  	86.036058 
2929.292201  	86.282680 
2930.006488  	86.530013 
2930.720775  	86.778277 
2931.435062  	87.029898 
2932.149350  	87.281816 
2932.863637  	87.534384 
2933.577924  	87.788829 
2934.292212  	88.038350 
2935.006499  	88.278600 
2935.720786  	88.510439 
2936.435074  	88.734685 
2937.149361  	88.953480 
2937.863648  	89.165288 
2938.577935  	89.366879 
2939.292223  	89.561172 
2940.006510  	89.747712 
2940.720797  	89.920136 
2941.435085  	90.081084 
2942.149372  	90.238940 
2942.863659  	90.392048 
2943.577946  	90.533459 
2944.292234  	90.663842 
2945.006521  	90.788351 
2945.720808  	90.906525 
2946.435096  	91.011726 
2947.149383  	91.099894 
2947.863670  	91.174792 
2948.577958  	91.242018 
2949.292245  	91.303407 
2950.006532  	91.360422 
2950.720819  	91.414179 
2951.435107  	91.463571 
2952.149394  	91.511334 
2952.863681  	91.561159 
2953.577969  	91.608978 
2954.292256  	91.654139 
2955.006543  	91.702313 
2955.720831  	91.748361 
2956.435118  	91.789776 
2957.149405  	91.840952 
2957.863692  	91.903553 
2958.577980  	91.964316 
2959.292267  	92.024013 
2960.006554  	92.083808 
2960.720842  	92.133898 
2961.435129  	92.176121 
2962.149416  	92.220739 
2962.863703  	92.271666 
2963.577991  	92.328245 
2964.292278  	92.385526 
2965.006565  	92.441641 
2965.720853  	92.497161 
2966.435140  	92.546034 
2967.149427  	92.590568 
2967.863715  	92.638728 
2968.578002  	92.685771 
2969.292289  	92.733886 
2970.006576  	92.791175 
2970.720864  	92.846724 
2971.435151  	92.893079 
2972.149438  	92.935711 
2972.863726  	92.970077 
2973.578013  	92.995833 
2974.292300  	93.025356 
2975.006588  	93.062604 
2975.720875  	93.102987 
2976.435162  	93.140987 
2977.149449  	93.173955 
2977.863737  	93.205000 
2978.578024  	93.233103 
2979.292311  	93.256628 
2980.006599  	93.281119 
2980.720886  	93.305423 
2981.435173  	93.323904 
2982.149460  	93.340828 
2982.863748  	93.360414 
2983.578035  	93.377057 
2984.292322  	93.386096 
2985.006610  	93.394584 
2985.720897  	93.410512 
2986.435184  	93.428825 
2987.149472  	93.445179 
2987.863759  	93.463859 
2988.578046  	93.482727 
2989.292333  	93.496179 
2990.006621  	93.502391 
2990.720908  	93.499519 
2991.435195  	93.491743 
2992.149483  	93.485111 
2992.863770  	93.476711 
2993.578057  	93.461233 
2994.292345  	93.437503 
2995.006632  	93.411035 
2995.720919  	93.385920 
2996.435206  	93.355162 
2997.149494  	93.321960 
2997.863781  	93.301200 
2998.578068  	93.289167 
2999.292356  	93.275674 
3000.006643  	93.262752 
3000.720930  	93.251141 
3001.435217  	93.240950 
3002.149505  	93.232188 
3002.863792  	93.221061 
3003.578079  	93.210077 
3004.292367  	93.201294 
3005.006654  	93.193454 
3005.720941  	93.190912 
3006.435229  	93.191418 
3007.149516  	93.190763 
3007.863803  	93.196075 
3008.578090  	93.209154 
3009.292378  	93.227655 
3010.006665  	93.253442 
3010.720952  	93.279997 
3011.435240  	93.303384 
3012.149527  	93.330491 
3012.863814  	93.360808 
3013.578101  	93.389775 
3014.292389  	93.416898 
3015.006676  	93.440430 
3015.720963  	93.460765 
3016.435251  	93.478684 
3017.149538  	93.494949 
3017.863825  	93.515721 
3018.578113  	93.540787 
3019.292400  	93.561968 
3020.006687  	93.577240 
3020.720974  	93.586433 
3021.435262  	93.588153 
3022.149549  	93.585691 
3022.863836  	93.580583 
3023.578124  	93.571759 
3024.292411  	93.563381 
3025.006698  	93.559517 
3025.720986  	93.554025 
3026.435273  	93.537715 
3027.149560  	93.515787 
3027.863847  	93.499939 
3028.578135  	93.487816 
3029.292422  	93.476311 
3030.006709  	93.473311 
3030.720997  	93.477434 
3031.435284  	93.480919 
3032.149571  	93.484490 
3032.863858  	93.484376 
3033.578146  	93.475254 
3034.292433  	93.463643 
3035.006720  	93.453698 
3035.721008  	93.443633 
3036.435295  	93.435284 
3037.149582  	93.427718 
3037.863870  	93.417911 
3038.578157  	93.405938 
3039.292444  	93.390834 
3040.006731  	93.373128 
3040.721019  	93.353565 
3041.435306  	93.330856 
3042.149593  	93.310432 
3042.863881  	93.297941 
3043.578168  	93.290280 
3044.292455  	93.286503 
3045.006743  	93.284974 
3045.721030  	93.277693 
3046.435317  	93.264956 
3047.149604  	93.251828 
3047.863892  	93.237008 
3048.578179  	93.225014 
3049.292466  	93.221917 
3050.006754  	93.219904 
3050.721041  	93.214705 
3051.435328  	93.214985 
3052.149615  	93.217593 
3052.863903  	93.208265 
3053.578190  	93.188900 
3054.292477  	93.170713 
3055.006765  	93.152265 
3055.721052  	93.132197 
3056.435339  	93.119133 
3057.149627  	93.111335 
3057.863914  	93.096898 
3058.578201  	93.075079 
3059.292488  	93.052847 
3060.006776  	93.033134 
3060.721063  	93.017310 
3061.435350  	93.006541 
3062.149638  	92.999477 
3062.863925  	92.992828 
3063.578212  	92.988125 
3064.292500  	92.991236 
3065.006787  	92.995826 
3065.721074  	92.990865 
3066.435361  	92.982477 
3067.149649  	92.976136 
3067.863936  	92.965989 
3068.578223  	92.956501 
3069.292511  	92.952609 
3070.006798  	92.947921 
3070.721085  	92.942426 
3071.435372  	92.937217 
3072.149660  	92.928631 
3072.863947  	92.919794 
3073.578234  	92.910350 
3074.292522  	92.896440 
3075.006809  	92.883161 
3075.721096  	92.871788 
3076.435384  	92.860457 
3077.149671  	92.853995 
3077.863958  	92.851656 
3078.578245  	92.850425 
3079.292533  	92.851710 
3080.006820  	92.850179 
3080.721107  	92.841862 
3081.435395  	92.833049 
3082.149682  	92.828923 
3082.863969  	92.829991 
3083.578256  	92.832133 
3084.292544  	92.830264 
3085.006831  	92.825964 
3085.721118  	92.818855 
3086.435406  	92.807957 
3087.149693  	92.800495 
3087.863980  	92.794577 
3088.578268  	92.781863 
3089.292555  	92.770448 
3090.006842  	92.766936 
3090.721129  	92.763110 
3091.435417  	92.757714 
3092.149704  	92.753800 
3092.863991  	92.745603 
3093.578279  	92.730473 
3094.292566  	92.715889 
3095.006853  	92.708399 
3095.721141  	92.704534 
3096.435428  	92.700249 
3097.149715  	92.700558 
3097.864002  	92.704825 
3098.578290  	92.706483 
3099.292577  	92.710720 
3100.006864  	92.718352 
3100.721152  	92.718678 
3101.435439  	92.714867 
3102.149726  	92.713947 
3102.864013  	92.709478 
3103.578301  	92.700234 
3104.292588  	92.692161 
3105.006875  	92.683358 
3105.721163  	92.666677 
3106.435450  	92.640588 
3107.149737  	92.616307 
3107.864025  	92.600982 
3108.578312  	92.584119 
3109.292599  	92.562960 
3110.006886  	92.547925 
3110.721174  	92.539228 
3111.435461  	92.532492 
3112.149748  	92.527834 
3112.864036  	92.524725 
3113.578323  	92.521953 
3114.292610  	92.513811 
3115.006898  	92.498676 
3115.721185  	92.487010 
3116.435472  	92.481393 
3117.149759  	92.474424 
3117.864047  	92.462942 
3118.578334  	92.444900 
3119.292621  	92.427483 
3120.006909  	92.421945 
3120.721196  	92.417200 
3121.435483  	92.398535 
3122.149770  	92.374017 
3122.864058  	92.353705 
3123.578345  	92.336024 
3124.292632  	92.319114 
3125.006920  	92.306365 
3125.721207  	92.301851 
3126.435494  	92.298940 
3127.149782  	92.286278 
3127.864069  	92.268353 
3128.578356  	92.257726 
3129.292643  	92.255909 
3130.006931  	92.255606 
3130.721218  	92.249305 
3131.435505  	92.236386 
3132.149793  	92.222127 
3132.864080  	92.206628 
3133.578367  	92.188221 
3134.292655  	92.169561 
3135.006942  	92.149459 
3135.721229  	92.126270 
3136.435516  	92.107291 
3137.149804  	92.097646 
3137.864091  	92.091626 
3138.578378  	92.084341 
3139.292666  	92.075910 
3140.006953  	92.063334 
3140.721240  	92.046592 
3141.435527  	92.034044 
3142.149815  	92.026363 
3142.864102  	92.014283 
3143.578389  	91.994579 
3144.292677  	91.969659 
3145.006964  	91.945704 
3145.721251  	91.933268 
3146.435539  	91.931849 
3147.149826  	91.930404 
3147.864113  	91.924516 
3148.578400  	91.916247 
3149.292688  	91.909498 
3150.006975  	91.904876 
3150.721262  	91.898456 
3151.435550  	91.893142 
3152.149837  	91.888005 
3152.864124  	91.871393 
3153.578411  	91.846850 
3154.292699  	91.822979 
3155.006986  	91.792679 
3155.721273  	91.758784 
3156.435561  	91.731315 
3157.149848  	91.706578 
3157.864135  	91.686144 
3158.578423  	91.672882 
3159.292710  	91.657535 
3160.006997  	91.641522 
3160.721284  	91.632657 
3161.435572  	91.626950 
3162.149859  	91.620740 
3162.864146  	91.613749 
3163.578434  	91.607073 
3164.292721  	91.603404 
3165.007008  	91.596491 
3165.721296  	91.583303 
3166.435583  	91.571993 
3167.149870  	91.559201 
3167.864157  	91.537948 
3168.578445  	91.515903 
3169.292732  	91.498247 
3170.007019  	91.483536 
3170.721307  	91.472466 
3171.435594  	91.462237 
3172.149881  	91.450886 
3172.864168  	91.439451 
3173.578456  	91.425533 
3174.292743  	91.408949 
3175.007030  	91.389960 
3175.721318  	91.366538 
3176.435605  	91.344586 
3177.149892  	91.330241 
3177.864180  	91.319327 
3178.578467  	91.307291 
3179.292754  	91.293130 
3180.007041  	91.276831 
3180.721329  	91.257662 
3181.435616  	91.235987 
3182.149903  	91.222895 
3182.864191  	91.223160 
3183.578478  	91.219330 
3184.292765  	91.207164 
3185.007053  	91.200328 
3185.721340  	91.193568 
3186.435627  	91.180999 
3187.149914  	91.171789 
3187.864202  	91.161238 
3188.578489  	91.143214 
3189.292776  	91.127280 
3190.007064  	91.113882 
3190.721351  	91.096155 
3191.435638  	91.076737 
3192.149925  	91.060135 
3192.864213  	91.047337 
3193.578500  	91.036107 
3194.292787  	91.027521 
3195.007075  	91.024998 
3195.721362  	91.016174 
3196.435649  	90.993378 
3197.149937  	90.975586 
3197.864224  	90.967242 
3198.578511  	90.952902 
3199.292798  	90.936208 
3200.007086  	90.921039 
3200.721373  	90.898968 
3201.435660  	90.874548 
3202.149948  	90.852285 
3202.864235  	90.830788 
3203.578522  	90.818583 
3204.292810  	90.816549 
3205.007097  	90.816623 
3205.721384  	90.818330 
3206.435671  	90.820038 
3207.149959  	90.821933 
3207.864246  	90.825212 
3208.578533  	90.820391 
3209.292821  	90.809456 
3210.007108  	90.804469 
3210.721395  	90.798505 
3211.435682  	90.784885 
3212.149970  	90.770285 
3212.864257  	90.755339 
3213.578544  	90.740174 
3214.292832  	90.726592 
3215.007119  	90.712704 
3215.721406  	90.704096 
3216.435694  	90.702530 
3217.149981  	90.697765 
3217.864268  	90.690787 
3218.578555  	90.689112 
3219.292843  	90.687707 
3220.007130  	90.681290 
3220.721417  	90.673459 
3221.435705  	90.667327 
3222.149992  	90.660701 
3222.864279  	90.649991 
3223.578566  	90.636340 
3224.292854  	90.622577 
3225.007141  	90.607012 
3225.721428  	90.589491 
3226.435716  	90.574634 
3227.150003  	90.564105 
3227.864290  	90.556075 
3228.578578  	90.550524 
3229.292865  	90.545995 
3230.007152  	90.537894 
3230.721439  	90.525531 
3231.435727  	90.511397 
3232.150014  	90.494812 
3232.864301  	90.475103 
3233.578589  	90.454853 
3234.292876  	90.436019 
3235.007163  	90.415968 
3235.721451  	90.390009 
3236.435738  	90.361604 
3237.150025  	90.338579 
3237.864312  	90.318356 
3238.578600  	90.298481 
3239.292887  	90.287143 
3240.007174  	90.285714 
3240.721462  	90.286500 
3241.435749  	90.285248 
3242.150036  	90.277482 
3242.864323  	90.261850 
3243.578611  	90.245540 
3244.292898  	90.232926 
3245.007185  	90.221034 
3245.721473  	90.205999 
3246.435760  	90.189272 
3247.150047  	90.176076 
3247.864335  	90.162272 
3248.578622  	90.141190 
3249.292909  	90.122080 
3250.007196  	90.112210 
3250.721484  	90.102122 
3251.435771  	90.088571 
3252.150058  	90.080885 
3252.864346  	90.081183 
3253.578633  	90.080519 
3254.292920  	90.070576 
3255.007208  	90.052932 
3255.721495  	90.036025 
3256.435782  	90.021407 
3257.150069  	90.002503 
3257.864357  	89.977992 
3258.578644  	89.953317 
3259.292931  	89.929381 
3260.007219  	89.903476 
3260.721506  	89.877585 
3261.435793  	89.853364 
3262.150080  	89.829202 
3262.864368  	89.806131 
3263.578655  	89.784666 
3264.292942  	89.765913 
3265.007230  	89.754935 
3265.721517  	89.748158 
3266.435804  	89.738142 
3267.150092  	89.729045 
3267.864379  	89.724804 
3268.578666  	89.723013 
3269.292953  	89.721599 
3270.007241  	89.715960 
3270.721528  	89.706925 
3271.435815  	89.701193 
3272.150103  	89.697903 
3272.864390  	89.696030 
3273.578677  	89.694611 
3274.292965  	89.687995 
3275.007252  	89.681090 
3275.721539  	89.678307 
3276.435826  	89.670110 
3277.150114  	89.655883 
3277.864401  	89.642661 
3278.578688  	89.629874 
3279.292976  	89.618214 
3280.007263  	89.608025 
3280.721550  	89.601171 
3281.435837  	89.606229 
3282.150125  	89.616994 
3282.864412  	89.616628 
3283.578699  	89.606964 
3284.292987  	89.598927 
3285.007274  	89.593918 
3285.721561  	89.590837 
3286.435849  	89.591981 
3287.150136  	89.598379 
3287.864423  	89.606007 
3288.578710  	89.611739 
3289.292998  	89.616543 
3290.007285  	89.619083 
3290.721572  	89.619837 
3291.435860  	89.622830 
3292.150147  	89.627050 
3292.864434  	89.633854 
3293.578721  	89.649770 
3294.293009  	89.670447 
3295.007296  	89.682971 
3295.721583  	89.683324 
3296.435871  	89.679615 
3297.150158  	89.680503 
3297.864445  	89.685750 
3298.578733  	89.694689 
3299.293020  	89.710929 
3300.007307  	89.730764 
3300.721594  	89.749360 
3301.435882  	89.771130 
3302.150169  	89.794869 
3302.864456  	89.811265 
3303.578744  	89.820529 
3304.293031  	89.829358 
3305.007318  	89.837080 
3305.721606  	89.841385 
3306.435893  	89.847396 
3307.150180  	89.857020 
3307.864467  	89.861877 
3308.578755  	89.860677 
3309.293042  	89.862196 
3310.007329  	89.865715 
3310.721617  	89.866950 
3311.435904  	89.872913 
3312.150191  	89.886857 
3312.864478  	89.901611 
3313.578766  	89.917063 
3314.293053  	89.937727 
3315.007340  	89.956480 
3315.721628  	89.965055 
3316.435915  	89.970671 
3317.150202  	89.979605 
3317.864490  	89.984305 
3318.578777  	89.986377 
3319.293064  	89.996553 
3320.007351  	90.007219 
3320.721639  	90.007582 
3321.435926  	90.006313 
3322.150213  	90.010206 
3322.864501  	90.015423 
3323.578788  	90.022771 
3324.293075  	90.036393 
3325.007363  	90.056359 
3325.721650  	90.075403 
3326.435937  	90.085335 
3327.150224  	90.090196 
3327.864512  	90.096522 
3328.578799  	90.103833 
3329.293086  	90.113496 
3330.007374  	90.120617 
3330.721661  	90.117162 
3331.435948  	90.113822 
3332.150235  	90.120229 
3332.864523  	90.127201 
3333.578810  	90.132095 
3334.293097  	90.141585 
3335.007385  	90.157107 
3335.721672  	90.178683 
3336.435959  	90.202582 
3337.150247  	90.222266 
3337.864534  	90.236983 
3338.578821  	90.246296 
3339.293108  	90.251749 
3340.007396  	90.259637 
3340.721683  	90.268455 
3341.435970  	90.275122 
3342.150258  	90.284641 
3342.864545  	90.294377 
3343.578832  	90.296772 
3344.293120  	90.298233 
3345.007407  	90.307549 
3345.721694  	90.321849 
3346.435981  	90.337146 
3347.150269  	90.353328 
3347.864556  	90.369679 
3348.578843  	90.386024 
3349.293131  	90.401357 
3350.007418  	90.412315 
3350.721705  	90.421259 
3351.435992  	90.434498 
3352.150280  	90.447034 
3352.864567  	90.448993 
3353.578854  	90.446800 
3354.293142  	90.455842 
3355.007429  	90.476552 
3355.721716  	90.492935 
3356.436004  	90.493117 
3357.150291  	90.486474 
3357.864578  	90.490610 
3358.578865  	90.504735 
3359.293153  	90.517026 
3360.007440  	90.526641 
3360.721727  	90.538094 
3361.436015  	90.552028 
3362.150302  	90.567754 
3362.864589  	90.582235 
3363.578876  	90.593761 
3364.293164  	90.605434 
3365.007451  	90.616930 
3365.721738  	90.625239 
3366.436026  	90.635476 
3367.150313  	90.654637 
3367.864600  	90.674693 
3368.578888  	90.681582 
3369.293175  	90.681121 
3370.007462  	90.690504 
3370.721749  	90.709377 
3371.436037  	90.725373 
3372.150324  	90.735299 
3372.864611  	90.746620 
3373.578899  	90.766462 
3374.293186  	90.791037 
3375.007473  	90.812253 
3375.721761  	90.829252 
3376.436048  	90.841715 
3377.150335  	90.850660 
3377.864622  	90.862087 
3378.578910  	90.873974 
3379.293197  	90.884100 
3380.007484  	90.899160 
3380.721772  	90.914281 
3381.436059  	90.921684 
3382.150346  	90.930900 
3382.864633  	90.945394 
3383.578921  	90.954964 
3384.293208  	90.958620 
3385.007495  	90.964008 
3385.721783  	90.977878 
3386.436070  	90.999637 
3387.150357  	91.017160 
3387.864645  	91.025274 
3388.578932  	91.030912 
3389.293219  	91.034123 
3390.007506  	91.034758 
3390.721794  	91.040434 
3391.436081  	91.050716 
3392.150368  	91.061913 
3392.864656  	91.077296 
3393.578943  	91.094155 
3394.293230  	91.107285 
3395.007518  	91.120226 
3395.721805  	91.134456 
3396.436092  	91.147216 
3397.150379  	91.160977 
3397.864667  	91.180424 
3398.578954  	91.207179 
3399.293241  	91.235546 
3400.007529  	91.255320 
3400.721816  	91.267434 
3401.436103  	91.277677 
3402.150390  	91.280816 
3402.864678  	91.276191 
3403.578965  	91.274056 
3404.293252  	91.276113 
3405.007540  	91.279330 
3405.721827  	91.286945 
3406.436114  	91.298507 
3407.150402  	91.307244 
3407.864689  	91.308290 
3408.578976  	91.306492 
3409.293263  	91.315860 
3410.007551  	91.340359 
3410.721838  	91.369810 
3411.436125  	91.398545 
3412.150413  	91.423390 
3412.864700  	91.441021 
3413.578987  	91.460443 
3414.293275  	91.488591 
3415.007562  	91.515642 
3415.721849  	91.534566 
3416.436136  	91.550014 
3417.150424  	91.567192 
3417.864711  	91.586137 
3418.578998  	91.602905 
3419.293286  	91.618069 
3420.007573  	91.635126 
3420.721860  	91.652023 
3421.436147  	91.668998 
3422.150435  	91.687589 
3422.864722  	91.702069 
3423.579009  	91.711596 
3424.293297  	91.722532 
3425.007584  	91.736449 
3425.721871  	91.753124 
3426.436159  	91.771528 
3427.150446  	91.786640 
3427.864733  	91.794266 
3428.579020  	91.794083 
3429.293308  	91.792121 
3430.007595  	91.795634 
3430.721882  	91.803042 
3431.436170  	91.813408 
3432.150457  	91.831742 
3432.864744  	91.854414 
3433.579031  	91.872008 
3434.293319  	91.883562 
3435.007606  	91.896477 
3435.721893  	91.920094 
3436.436181  	91.955951 
3437.150468  	91.994863 
3437.864755  	92.029048 
3438.579043  	92.056248 
3439.293330  	92.076596 
3440.007617  	92.098393 
3440.721904  	92.128247 
3441.436192  	92.152502 
3442.150479  	92.161055 
3442.864766  	92.169603 
3443.579054  	92.183556 
3444.293341  	92.189722 
3445.007628  	92.191906 
3445.721916  	92.201454 
3446.436203  	92.214549 
3447.150490  	92.228141 
3447.864777  	92.242019 
3448.579065  	92.255168 
3449.293352  	92.274254 
3450.007639  	92.299575 
3450.721927  	92.323318 
3451.436214  	92.347345 
3452.150501  	92.375735 
3452.864788  	92.408312 
3453.579076  	92.440730 
3454.293363  	92.461539 
3455.007650  	92.474756 
3455.721938  	92.497434 
3456.436225  	92.522083 
3457.150512  	92.534887 
3457.864800  	92.545746 
3458.579087  	92.563722 
3459.293374  	92.580727 
3460.007661  	92.588908 
3460.721949  	92.589825 
3461.436236  	92.594588 
3462.150523  	92.612243 
3462.864811  	92.633778 
3463.579098  	92.646595 
3464.293385  	92.656300 
3465.007673  	92.672961 
3465.721960  	92.694441 
3466.436247  	92.717845 
3467.150534  	92.744561 
3467.864822  	92.772110 
3468.579109  	92.800642 
3469.293396  	92.831780 
3470.007684  	92.856233 
3470.721971  	92.872978 
3471.436258  	92.897075 
3472.150545  	92.924556 
3472.864833  	92.939261 
3473.579120  	92.950989 
3474.293407  	92.972403 
3475.007695  	92.991918 
3475.721982  	93.001783 
3476.436269  	93.009146 
3477.150557  	93.019139 
3477.864844  	93.033246 
3478.579131  	93.050306 
3479.293418  	93.068219 
3480.007706  	93.083958 
3480.721993  	93.092975 
3481.436280  	93.101662 
3482.150568  	93.118639 
3482.864855  	93.135035 
3483.579142  	93.147446 
3484.293430  	93.166504 
3485.007717  	93.188446 
3485.722004  	93.205554 
3486.436291  	93.223822 
3487.150579  	93.240261 
3487.864866  	93.246634 
3488.579153  	93.255155 
3489.293441  	93.276419 
3490.007728  	93.298976 
3490.722015  	93.319698 
3491.436302  	93.349687 
3492.150590  	93.384799 
3492.864877  	93.414143 
3493.579164  	93.442078 
3494.293452  	93.476307 
3495.007739  	93.514966 
3495.722026  	93.551173 
3496.436314  	93.584984 
3497.150601  	93.624445 
3497.864888  	93.663319 
3498.579175  	93.684387 
3499.293463  	93.687673 
3500.007750  	93.680828 
3500.722037  	93.669339 
3501.436325  	93.663377 
3502.150612  	93.663904 
3502.864899  	93.667376 
3503.579186  	93.680351 
3504.293474  	93.698772 
3505.007761  	93.710426 
3505.722048  	93.718039 
3506.436336  	93.731796 
3507.150623  	93.755452 
3507.864910  	93.783291 
3508.579198  	93.812129 
3509.293485  	93.848594 
3510.007772  	93.886296 
3510.722059  	93.910056 
3511.436347  	93.923807 
3512.150634  	93.934435 
3512.864921  	93.941536 
3513.579209  	93.953071 
3514.293496  	93.973229 
3515.007783  	94.001645 
3515.722071  	94.041113 
3516.436358  	94.085557 
3517.150645  	94.127281 
3517.864932  	94.163408 
3518.579220  	94.190830 
3519.293507  	94.216930 
3520.007794  	94.243557 
3520.722082  	94.262280 
3521.436369  	94.281520 
3522.150656  	94.303179 
3522.864943  	94.309582 
3523.579231  	94.304814 
3524.293518  	94.303384 
3525.007805  	94.303032 
3525.722093  	94.303196 
3526.436380  	94.305466 
3527.150667  	94.311039 
3527.864955  	94.329410 
3528.579242  	94.361195 
3529.293529  	94.400134 
3530.007816  	94.441751 
3530.722104  	94.469429 
3531.436391  	94.479150 
3532.150678  	94.488513 
3532.864966  	94.500497 
3533.579253  	94.516923 
3534.293540  	94.544508 
3535.007828  	94.569121 
3535.722115  	94.585503 
3536.436402  	94.607157 
3537.150689  	94.633964 
3537.864977  	94.659902 
3538.579264  	94.683247 
3539.293551  	94.703509 
3540.007839  	94.731876 
3540.722126  	94.774142 
3541.436413  	94.818559 
3542.150700  	94.854710 
3542.864988  	94.879930 
3543.579275  	94.891436 
3544.293562  	94.894239 
3545.007850  	94.896940 
3545.722137  	94.904123 
3546.436424  	94.917524 
3547.150712  	94.935508 
3547.864999  	94.951197 
3548.579286  	94.965981 
3549.293573  	94.983001 
3550.007861  	95.002420 
3550.722148  	95.025293 
3551.436435  	95.051751 
3552.150723  	95.077186 
3552.865010  	95.103173 
3553.579297  	95.132281 
3554.293585  	95.159263 
3555.007872  	95.181830 
3555.722159  	95.203471 
3556.436446  	95.223398 
3557.150734  	95.241157 
3557.865021  	95.256383 
3558.579308  	95.264840 
3559.293596  	95.270494 
3560.007883  	95.283149 
3560.722170  	95.300920 
3561.436457  	95.319652 
3562.150745  	95.345703 
3562.865032  	95.376205 
3563.579319  	95.398473 
3564.293607  	95.411347 
3565.007894  	95.417272 
3565.722181  	95.417484 
3566.436469  	95.422866 
3567.150756  	95.440917 
3567.865043  	95.458867 
3568.579330  	95.465952 
3569.293618  	95.468072 
3570.007905  	95.470369 
3570.722192  	95.476565 
3571.436480  	95.486102 
3572.150767  	95.498530 
3572.865054  	95.521190 
3573.579341  	95.553712 
3574.293629  	95.584715 
3575.007916  	95.614033 
3575.722203  	95.637468 
3576.436491  	95.651527 
3577.150778  	95.666091 
3577.865065  	95.682181 
3578.579353  	95.697059 
3579.293640  	95.715570 
3580.007927  	95.741464 
3580.722214  	95.769875 
3581.436502  	95.795539 
3582.150789  	95.821241 
3582.865076  	95.854434 
3583.579364  	95.892214 
3584.293651  	95.918408 
3585.007938  	95.928277 
3585.722226  	95.933868 
3586.436513  	95.942875 
3587.150800  	95.948413 
3587.865087  	95.948547 
3588.579375  	95.946682 
3589.293662  	95.945544 
3590.007949  	95.946800 
3590.722237  	95.945747 
3591.436524  	95.943216 
3592.150811  	95.950999 
3592.865098  	95.976754 
3593.579386  	96.004529 
3594.293673  	96.023177 
3595.007960  	96.044232 
3595.722248  	96.073676 
3596.436535  	96.100416 
3597.150822  	96.117524 
3597.865110  	96.129327 
3598.579397  	96.145605 
3599.293684  	96.167727 
3600.007971  	96.188012 
3600.722259  	96.206880 
3601.436546  	96.226533 
3602.150833  	96.243016 
3602.865121  	96.262084 
3603.579408  	96.290587 
3604.293695  	96.315407 
3605.007983  	96.326770 
3605.722270  	96.329137 
3606.436557  	96.333700 
3607.150844  	96.346755 
3607.865132  	96.359669 
3608.579419  	96.366510 
3609.293706  	96.368385 
3610.007994  	96.363946 
3610.722281  	96.357557 
3611.436568  	96.363903 
3612.150855  	96.377674 
3612.865143  	96.393489 
3613.579430  	96.423426 
3614.293717  	96.459370 
3615.008005  	96.487916 
3615.722292  	96.521832 
3616.436579  	96.552094 
3617.150867  	96.557221 
3617.865154  	96.553773 
3618.579441  	96.561215 
3619.293728  	96.577611 
3620.008016  	96.585793 
3620.722303  	96.577234 
3621.436590  	96.561271 
3622.150878  	96.550105 
3622.865165  	96.565001 
3623.579452  	96.613403 
3624.293740  	96.666094 
3625.008027  	96.701592 
3625.722314  	96.724690 
3626.436601  	96.745907 
3627.150889  	96.761178 
3627.865176  	96.770089 
3628.579463  	96.774000 
3629.293751  	96.767068 
3630.008038  	96.754971 
3630.722325  	96.742283 
3631.436612  	96.723398 
3632.150900  	96.703180 
3632.865187  	96.686847 
3633.579474  	96.672238 
3634.293762  	96.662265 
3635.008049  	96.674629 
3635.722336  	96.722155 
3636.436624  	96.775751 
3637.150911  	96.801456 
3637.865198  	96.813945 
3638.579485  	96.825243 
3639.293773  	96.830584 
3640.008060  	96.836788 
3640.722347  	96.856437 
3641.436635  	96.881350 
3642.150922  	96.902416 
3642.865209  	96.932466 
3643.579496  	96.975927 
3644.293784  	97.029293 
3645.008071  	97.091895 
3645.722358  	97.147366 
3646.436646  	97.177969 
3647.150933  	97.183925 
3647.865220  	97.178393 
3648.579508  	97.173102 
3649.293795  	97.162447 
3650.008082  	97.149878 
3650.722369  	97.139849 
3651.436657  	97.103217 
3652.150944  	97.042115 
3652.865231  	96.995995 
3653.579519  	96.979727 
3654.293806  	96.974759 
3655.008093  	96.972820 
3655.722381  	96.982648 
3656.436668  	97.005980 
3657.150955  	97.034780 
3657.865242  	97.059015 
3658.579530  	97.075006 
3659.293817  	97.078199 
3660.008104  	97.061657 
3660.722392  	97.038739 
3661.436679  	97.026316 
3662.150966  	97.028028 
3662.865253  	97.046879 
3663.579541  	97.063677 
3664.293828  	97.079798 
3665.008115  	97.141273 
3665.722403  	97.214286 
3666.436690  	97.252677 
3667.150977  	97.256356 
3667.865265  	97.240395 
3668.579552  	97.229565 
3669.293839  	97.261951 
3670.008126  	97.316955 
3670.722414  	97.357334 
3671.436701  	97.381012 
3672.150988  	97.375397 
3672.865276  	97.345101 
3673.579563  	97.325642 
3674.293850  	97.321552 
3675.008138  	97.313745 
3675.722425  	97.301767 
3676.436712  	97.294727 
3677.150999  	97.307016 
3677.865287  	97.319283 
3678.579574  	97.281772 
3679.293861  	97.218110 
3680.008149  	97.161053 
3680.722436  	97.114363 
3681.436723  	97.101037 
3682.151010  	97.151067 
3682.865298  	97.226417 
3683.579585  	97.273743 
3684.293872  	97.302841 
3685.008160  	97.337839 
3685.722447  	97.392818 
3686.436734  	97.445031 
3687.151022  	97.473100 
3687.865309  	97.476465 
3688.579596  	97.464406 
3689.293883  	97.442794 
3690.008171  	97.413405 
3690.722458  	97.376741 
3691.436745  	97.335867 
3692.151033  	97.285487 
3692.865320  	97.221791 
3693.579607  	97.159804 
3694.293895  	97.119733 
3695.008182  	97.118735 
3695.722469  	97.148396 
3696.436756  	97.168755 
3697.151044  	97.183690 
3697.865331  	97.210868 
3698.579618  	97.236414 
3699.293906  	97.249003 
3700.008193  	97.266079 
3700.722480  	97.279156 
3701.436767  	97.269763 
3702.151055  	97.245578 
3702.865342  	97.233934 
3703.579629  	97.250049 
3704.293917  	97.259996 
3705.008204  	97.240872 
3705.722491  	97.237096 
3706.436779  	97.283758 
3707.151066  	97.329835 
3707.865353  	97.360375 
3708.579640  	97.390332 
3709.293928  	97.406613 
3710.008215  	97.405000 
3710.722502  	97.390138 
3711.436790  	97.359479 
3712.151077  	97.328709 
3712.865364  	97.305127 
3713.579651  	97.270897 
3714.293939  	97.217624 
3715.008226  	97.158697 
3715.722513  	97.124442 
3716.436801  	97.134123 
3717.151088  	97.149026 
3717.865375  	97.158243 
3718.579663  	97.201865 
3719.293950  	97.267534 
3720.008237  	97.293508 
3720.722524  	97.296052 
3721.436812  	97.303276 
3722.151099  	97.302796 
3722.865386  	97.276857 
3723.579674  	97.233210 
3724.293961  	97.193883 
3725.008248  	97.163956 
3725.722536  	97.152917 
3726.436823  	97.175260 
3727.151110  	97.185188 
3727.865397  	97.171078 
3728.579685  	97.195437 
3729.293972  	97.277299 
3730.008259  	97.339416 
3730.722547  	97.371034 
3731.436834  	97.401392 
3732.151121  	97.434999 
3732.865408  	97.461350 
3733.579696  	97.465879 
3734.293983  	97.449042 
3735.008270  	97.423515 
3735.722558  	97.387656 
3736.436845  	97.331090 
3737.151132  	97.253949 
3737.865420  	97.188956 
3738.579707  	97.247926 
3739.293994  	97.363283 
3740.008281  	97.383746 
3740.722569  	97.356743 
3741.436856  	97.351446 
3742.151143  	97.346308 
3742.865431  	97.325918 
3743.579718  	97.349645 
3744.294005  	97.373002 
3745.008293  	97.365194 
3745.722580  	97.361673 
3746.436867  	97.386042 
3747.151154  	97.415183 
3747.865442  	97.431142 
3748.579729  	97.410480 
3749.294016  	97.361408 
3750.008304  	97.328881 
3750.722591  	97.352795 
3751.436878  	97.431234 
3752.151165  	97.428343 
3752.865453  	97.334314 
3753.579740  	97.268732 
3754.294027  	97.233485 
3755.008315  	97.192086 
3755.722602  	97.161815 
3756.436889  	97.139114 
3757.151177  	97.079446 
3757.865464  	97.023759 
3758.579751  	97.014892 
3759.294038  	97.039095 
3760.008326  	97.063590 
3760.722613  	97.074843 
3761.436900  	97.066054 
3762.151188  	97.050384 
3762.865475  	97.042017 
3763.579762  	97.055832 
3764.294050  	97.092843 
3765.008337  	97.125854 
3765.722624  	97.158888 
3766.436911  	97.203820 
3767.151199  	97.230901 
3767.865486  	97.228689 
3768.579773  	97.224332 
3769.294061  	97.220222 
3770.008348  	97.215936 
3770.722635  	97.215896 
3771.436922  	97.211487 
3772.151210  	97.202547 
3772.865497  	97.200210 
3773.579784  	97.194007 
3774.294072  	97.167994 
3775.008359  	97.134789 
3775.722646  	97.119316 
3776.436934  	97.123450 
3777.151221  	97.122577 
3777.865508  	97.101586 
3778.579795  	97.082258 
3779.294083  	97.076979 
3780.008370  	97.078161 
3780.722657  	97.082710 
3781.436945  	97.094068 
3782.151232  	97.106886 
3782.865519  	97.114317 
3783.579806  	97.119525 
3784.294094  	97.125366 
3785.008381  	97.137558 
3785.722668  	97.169378 
3786.436956  	97.209323 
3787.151243  	97.224559 
3787.865530  	97.221487 
3788.579818  	97.216655 
3789.294105  	97.203905 
3790.008392  	97.192362 
3790.722679  	97.201336 
3791.436967  	97.220371 
3792.151254  	97.232113 
3792.865541  	97.232791 
3793.579829  	97.221079 
3794.294116  	97.202263 
3795.008403  	97.202481 
3795.722691  	97.241849 
3796.436978  	97.288158 
3797.151265  	97.319455 
3797.865552  	97.328319 
3798.579840  	97.313133 
3799.294127  	97.276254 
3800.008414  	97.230641 
3800.722702  	97.209067 
3801.436989  	97.227805 
3802.151276  	97.253667 
3802.865563  	97.270271 
3803.579851  	97.277031 
3804.294138  	97.271685 
3805.008425  	97.261607 
3805.722713  	97.252584 
3806.437000  	97.244334 
3807.151287  	97.243255 
3807.865575  	97.255499 
3808.579862  	97.258319 
3809.294149  	97.227281 
3810.008436  	97.214890 
3810.722724  	97.224594 
3811.437011  	97.196770 
3812.151298  	97.142144 
3812.865586  	97.103148 
3813.579873  	97.098778 
3814.294160  	97.110870 
3815.008448  	97.131659 
3815.722735  	97.178395 
3816.437022  	97.235428 
3817.151309  	97.287467 
3817.865597  	97.325064 
3818.579884  	97.346975 
3819.294171  	97.350870 
3820.008459  	97.331276 
3820.722746  	97.303167 
3821.437033  	97.291869 
3822.151320  	97.308649 
3822.865608  	97.342149 
3823.579895  	97.333161 
3824.294182  	97.257654 
3825.008470  	97.184997 
3825.722757  	97.149897 
3826.437044  	97.134046 
3827.151332  	97.125545 
3827.865619  	97.141717 
3828.579906  	97.181738 
3829.294193  	97.222793 
3830.008481  	97.230619 
3830.722768  	97.198998 
3831.437055  	97.178741 
3832.151343  	97.215835 
3832.865630  	97.262053 
3833.579917  	97.290410 
3834.294205  	97.317886 
3835.008492  	97.344016 
3835.722779  	97.343038 
3836.437066  	97.314923 
3837.151354  	97.295990 
3837.865641  	97.312615 
3838.579928  	97.335576 
3839.294216  	97.320031 
3840.008503  	97.272077 
3840.722790  	97.231542 
3841.437077  	97.216257 
3842.151365  	97.194253 
3842.865652  	97.137038 
3843.579939  	97.089852 
3844.294227  	97.090898 
3845.008514  	97.111613 
3845.722801  	97.101514 
3846.437089  	97.087546 
3847.151376  	97.098572 
3847.865663  	97.165410 
3848.579950  	97.270655 
3849.294238  	97.340148 
3850.008525  	97.389499 
3850.722812  	97.433810 
3851.437100  	97.460199 
3852.151387  	97.463129 
3852.865674  	97.450443 
3853.579961  	97.426760 
3854.294249  	97.387320 
3855.008536  	97.332564 
3855.722823  	97.289137 
3856.437111  	97.264858 
3857.151398  	97.223448 
3857.865685  	97.162938 
3858.579973  	97.131251 
3859.294260  	97.152208 
3860.008547  	97.199975 
3860.722834  	97.266072 
3861.437122  	97.295216 
3862.151409  	97.233608 
3862.865696  	97.162502 
3863.579984  	97.155265 
3864.294271  	97.205031 
3865.008558  	97.229069 
3865.722846  	97.215820 
3866.437133  	97.183846 
3867.151420  	97.143250 
3867.865707  	97.130005 
3868.579995  	97.167345 
3869.294282  	97.202409 
3870.008569  	97.199963 
3870.722857  	97.184144 
3871.437144  	97.183294 
3872.151431  	97.190222 
3872.865718  	97.161083 
3873.580006  	97.100285 
3874.294293  	97.064053 
3875.008580  	97.062657 
3875.722868  	97.072009 
3876.437155  	97.108589 
3877.151442  	97.147278 
3877.865730  	97.138978 
3878.580017  	97.108583 
3879.294304  	97.093993 
3880.008591  	97.127193 
3880.722879  	97.184290 
3881.437166  	97.218713 
3882.151453  	97.209896 
3882.865741  	97.181099 
3883.580028  	97.137009 
3884.294315  	97.081767 
3885.008603  	97.055219 
3885.722890  	97.069587 
3886.437177  	97.085564 
3887.151464  	97.097497 
3887.865752  	97.092562 
3888.580039  	97.059620 
3889.294326  	97.036748 
3890.008614  	97.038338 
3890.722901  	97.043270 
3891.437188  	97.049352 
3892.151475  	97.079938 
3892.865763  	97.129732 
3893.580050  	97.158461 
3894.294337  	97.156230 
3895.008625  	97.142602 
3895.722912  	97.137685 
3896.437199  	97.137533 
3897.151487  	97.138238 
3897.865774  	97.172266 
3898.580061  	97.225012 
3899.294348  	97.235419 
3900.008636  	97.215401 
3900.722923  	97.192223 
3901.437210  	97.167855 
3902.151498  	97.146886 
3902.865785  	97.131264 
3903.580072  	97.114475 
3904.294360  	97.095910 
3905.008647  	97.082518 
3905.722934  	97.074158 
3906.437221  	97.075423 
3907.151509  	97.063480 
3907.865796  	97.044494 
3908.580083  	97.042091 
3909.294371  	97.043244 
3910.008658  	97.039018 
3910.722945  	97.066359 
3911.437232  	97.116856 
3912.151520  	97.132577 
3912.865807  	97.115030 
3913.580094  	97.108390 
3914.294382  	97.129124 
3915.008669  	97.149915 
3915.722956  	97.148496 
3916.437244  	97.131949 
3917.151531  	97.111332 
3917.865818  	97.094766 
3918.580105  	97.090391 
3919.294393  	97.101922 
3920.008680  	97.099422 
3920.722967  	97.077164 
3921.437255  	97.052816 
3922.151542  	97.038698 
3922.865829  	97.037983 
3923.580116  	97.048225 
3924.294404  	97.051219 
3925.008691  	97.032794 
3925.722978  	97.020323 
3926.437266  	97.040678 
3927.151553  	97.069440 
3927.865840  	97.070746 
3928.580128  	97.056452 
3929.294415  	97.049669 
3930.008702  	97.056143 
3930.722989  	97.074045 
3931.437277  	97.092205 
3932.151564  	97.096862 
3932.865851  	97.084804 
3933.580139  	97.063287 
3934.294426  	97.042846 
3935.008713  	97.028595 
3935.723001  	97.016091 
3936.437288  	97.006794 
3937.151575  	97.005660 
3937.865862  	97.008332 
3938.580150  	97.014132 
3939.294437  	97.021281 
3940.008724  	97.016130 
3940.723012  	97.002329 
3941.437299  	97.000458 
3942.151586  	97.013832 
3942.865873  	97.030098 
3943.580161  	97.043669 
3944.294448  	97.057155 
3945.008735  	97.068134 
3945.723023  	97.069122 
3946.437310  	97.066039 
3947.151597  	97.066922 
3947.865885  	97.066999 
3948.580172  	97.068278 
3949.294459  	97.079377 
3950.008746  	97.091409 
3950.723034  	97.092870 
3951.437321  	97.091406 
3952.151608  	97.090665 
3952.865896  	97.085645 
3953.580183  	97.080479 
3954.294470  	97.086983 
3955.008758  	97.103195 
3955.723045  	97.119310 
3956.437332  	97.133279 
3957.151619  	97.141907 
3957.865907  	97.137299 
3958.580194  	97.123967 
3959.294481  	97.116077 
3960.008769  	97.112017 
3960.723056  	97.104813 
3961.437343  	97.099252 
3962.151630  	97.093606 
3962.865918  	97.081375 
3963.580205  	97.072649 
3964.294492  	97.074849 
3965.008780  	97.075341 
3965.723067  	97.071412 
3966.437354  	97.074810 
3967.151642  	97.090908 
3967.865929  	97.110193 
3968.580216  	97.120279 
3969.294503  	97.117354 
3970.008791  	97.111123 
3970.723078  	97.107576 
3971.437365  	97.102736 
3972.151653  	97.096543 
3972.865940  	97.089557 
3973.580227  	97.080906 
3974.294515  	97.072758 
3975.008802  	97.061898 
3975.723089  	97.046472 
3976.437376  	97.033548 
3977.151664  	97.025608 
3977.865951  	97.025131 
3978.580238  	97.035171 
3979.294526  	97.044758 
3980.008813  	97.047520 
3980.723100  	97.050699 
3981.437387  	97.054980 
3982.151675  	97.062213 
3982.865962  	97.074698 
3983.580249  	97.079796 
3984.294537  	97.073346 
3985.008824  	97.066877 
3985.723111  	97.062822 
3986.437399  	97.059817 
3987.151686  	97.058160 
3987.865973  	97.050494 
3988.580260  	97.035335 
3989.294548  	97.025402 
3990.008835  	97.028683 
3990.723122  	97.036084 
3991.437410  	97.035277 
3992.151697  	97.030368 
3992.865984  	97.032932 
3993.580271  	97.041074 
3994.294559  	97.052354 
3995.008846  	97.063109 
3995.723133  	97.070210 
3996.437421  	97.070734 
3997.151708  	97.070475 
3997.865995  	97.073348 
3998.580283  	97.074472 
3999.294570  	97.074348 
4000.008857  	97.077376 